%OpenBCI Raw EEG Data
%
%Sample Rate = 250.0 Hz
%First Column = SampleIndex
%Other Columns = EEG data in microvolts followed by Accel Data (in G) interleaved with Aux Data
1, -13878.22, 34110.97, -26747.57, -37157.92, -21035.14, 6813.82, -26822.81, -35145.03, 0.00, 0.00, 0.00
3, -13910.70, 34096.04, -26764.45, -37181.95, -21028.70, 6960.13, -26802.74, -35153.55, 0.00, 0.00, 0.00
5, -13891.00, 34095.53, -26744.62, -37169.88, -21033.59, 6790.84, -26774.82, -35131.13, 0.00, 0.00, 0.00
7, -13913.31, 34081.25, -26763.49, -37195.80, -21043.72, 6976.16, -26820.73, -35167.54, 0.07, 0.88, 0.45
9, -13868.81, 34103.73, -26732.04, -37180.92, -21003.91, 6783.26, -26785.57, -35129.03, 0.00, 0.00, 0.00
11, -13909.71, 34071.70, -26775.06, -37222.63, -21045.66, 6974.37, -26825.51, -35180.80, 0.00, 0.00, 0.00
13, -13908.37, 34043.23, -26777.03, -37240.22, -21006.97, 6770.97, -26802.74, -35182.96, 0.00, 0.00, 0.00
15, -13914.21, 34031.38, -26788.83, -37233.60, -21031.27, 6951.48, -26826.61, -35196.44, 0.00, 0.00, 0.00
17, -13914.09, 34029.95, -26797.28, -37243.95, -21040.10, 6750.99, -26798.09, -35177.38, 0.07, 0.87, 0.44
19, -13911.68, 34042.58, -26798.89, -37220.79, -21016.18, 6886.51, -26811.72, -35193.43, 0.00, 0.00, 0.00
21, -13884.12, 34060.75, -26792.12, -37206.45, -21013.86, 6715.94, -26819.57, -35181.82, 0.00, 0.00, 0.00
23, -13885.48, 34062.94, -26792.54, -37176.14, -21004.13, 6862.14, -26793.62, -35173.02, 0.00, 0.00, 0.00
25, -13875.22, 34079.75, -26799.94, -37173.79, -21005.03, 6784.13, -26800.30, -35174.63, 0.00, 0.00, 0.00
27, -13900.01, 34058.71, -26837.67, -37180.76, -21042.58, 6872.58, -26823.37, -35190.36, 0.08, 0.88, 0.43
29, -13890.98, 34070.47, -26854.37, -37201.26, -21065.56, 6734.09, -26829.29, -35178.31, 0.00, 0.00, 0.00
31, -13903.16, 34060.91, -26856.16, -37172.69, -21028.50, 6844.17, -26778.26, -35192.30, 0.00, 0.00, 0.00
33, -13893.73, 34082.86, -26874.89, -37192.99, -21040.79, 6849.83, -26820.86, -35220.83, 0.00, 0.00, 0.00
35, -13878.40, 34070.70, -26875.83, -37171.73, -21091.20, 6839.32, -26856.96, -35222.35, 0.00, 0.00, 0.00
37, -13888.46, 34081.74, -26871.58, -37184.52, -21038.04, 6886.30, -26771.62, -35229.25, 0.08, 0.86, 0.42
39, -13884.12, 34067.68, -26854.48, -37184.23, -21047.90, 6776.13, -26802.62, -35201.80, 0.00, 0.00, 0.00
41, -13881.15, 34070.79, -26838.43, -37180.92, -21035.16, 6851.46, -26827.77, -35224.80, 0.00, 0.00, 0.00
43, -13878.13, 34073.02, -26812.62, -37172.27, -21017.41, 6748.93, -26810.83, -35209.83, 0.00, 0.00, 0.00
45, -13884.84, 34060.50, -26811.99, -37188.36, -21045.46, 6852.35, -26839.06, -35217.88, 0.00, 0.00, 0.00
47, -13885.89, 34050.49, -26808.48, -37182.95, -21037.21, 6741.08, -26833.29, -35209.45, 0.07, 0.86, 0.42
49, -13909.36, 34039.85, -26841.05, -37214.20, -21086.30, 6866.59, -26853.25, -35240.45, 0.00, 0.00, 0.00
51, -13863.47, 34069.11, -26803.54, -37169.52, -21018.28, 6705.05, -26790.42, -35178.31, 0.00, 0.00, 0.00
53, -13900.88, 34043.96, -26857.43, -37198.69, -21072.73, 6870.48, -26814.92, -35214.52, 0.00, 0.00, 0.00
55, -13871.09, 34062.83, -26844.24, -37179.60, -21033.75, 6673.54, -26785.50, -35175.83, 0.00, 0.00, 0.00
57, -13906.36, 34040.23, -26884.77, -37202.60, -21052.15, 6862.23, -26788.59, -35204.44, 0.10, 0.89, 0.42
59, -13903.83, 34038.53, -26897.24, -37223.07, -21072.53, 6668.89, -26780.54, -35187.57, 0.00, 0.00, 0.00
61, -13908.71, 34036.81, -26917.58, -37225.87, -21090.68, 6836.42, -26780.56, -35211.64, 0.00, 0.00, 0.00
63, -13870.69, 34063.90, -26875.49, -37207.70, -21059.39, 6652.53, -26763.42, -35185.02, 0.00, 0.00, 0.00
65, -13893.67, 34054.85, -26878.31, -37207.65, -21061.33, 6822.67, -26783.58, -35210.39, 0.00, 0.00, 0.00
67, -13861.63, 34062.11, -26853.09, -37204.01, -21060.19, 6665.54, -26767.51, -35178.47, 0.10, 0.92, 0.40
69, -13878.40, 34052.23, -26848.89, -37193.73, -21044.77, 6821.53, -26744.96, -35174.76, 0.00, 0.00, 0.00
71, -13874.38, 34046.76, -26845.85, -37210.20, -21048.73, 6699.33, -26754.37, -35175.14, 0.00, 0.00, 0.00
73, -13901.24, 34024.11, -26866.48, -37219.65, -21069.51, 6866.21, -26757.61, -35193.31, 0.00, 0.00, 0.00
75, -13873.68, 34036.23, -26835.93, -37211.72, -21045.55, 6767.91, -26760.00, -35181.29, 0.00, 0.00, 0.00
77, -13906.43, 34012.25, -26862.37, -37241.71, -21066.09, 6824.39, -26769.19, -35187.61, 0.09, 0.92, 0.38
79, -13893.37, 33995.13, -26857.88, -37249.94, -21049.24, 6809.10, -26772.18, -35184.82, 0.00, 0.00, 0.00
81, -13906.94, 34009.70, -26871.11, -37260.85, -21084.18, 6786.62, -26770.42, -35187.46, 0.00, 0.00, 0.00
83, -13928.87, 33969.00, -26867.82, -37277.61, -21068.22, 6825.55, -26800.77, -35209.03, 0.00, 0.00, 0.00
85, -13911.26, 33984.06, -26840.11, -37249.41, -21045.89, 6756.75, -26759.08, -35182.96, 0.00, 0.00, 0.00
87, -13926.34, 33975.03, -26850.72, -37271.36, -21097.56, 6838.20, -26790.87, -35206.14, 0.08, 0.93, 0.35
89, -13903.59, 33986.72, -26802.96, -37236.89, -21030.87, 6827.74, -26766.01, -35171.74, 0.00, 0.00, 0.00
91, -13930.28, 33990.86, -26818.58, -37274.57, -21075.77, 6905.64, -26811.72, -35210.84, 0.00, 0.00, 0.00
93, -13913.71, 33962.00, -26786.96, -37251.06, -21054.31, 6776.89, -26791.43, -35192.26, 0.00, 0.00, 0.00
95, -13920.26, 33974.63, -26781.05, -37263.29, -21052.95, 6876.11, -26800.54, -35198.77, 0.00, 0.00, 0.00
97, -13919.79, 33978.88, -26768.40, -37254.61, -21047.72, 6761.76, -26785.93, -35188.51, 0.03, 0.94, 0.33
99, -13936.69, 33975.81, -26773.05, -37275.89, -21050.63, 6874.48, -26806.11, -35228.76, 0.00, 0.00, 0.00
101, -13952.94, 33940.52, -26762.12, -37269.83, -21020.03, 6754.88, -26802.94, -35227.18, 0.00, 0.00, 0.00
103, -13969.55, 33943.94, -26778.48, -37299.11, -21046.36, 6903.51, -26854.30, -35257.66, 0.00, 0.00, 0.00
105, -13965.53, 33941.19, -26745.87, -37295.58, -21021.97, 6736.90, -26812.28, -35245.70, 0.00, 0.00, 0.00
107, -13989.31, 33920.43, -26769.59, -37328.11, -21082.10, 6930.67, -26879.85, -35296.58, -0.02, 0.93, 0.32
109, -13994.92, 33915.11, -26762.79, -37344.98, -21076.82, 6767.66, -26891.94, -35285.56, 0.00, 0.00, 0.00
111, -13987.43, 33935.78, -26768.76, -37348.18, -21056.39, 6904.25, -26920.42, -35302.41, 0.00, 0.00, 0.00
113, -13971.27, 33922.55, -26762.10, -37342.79, -21011.98, 6742.16, -26849.07, -35293.27, 0.00, 0.00, 0.00
115, -13977.57, 33919.31, -26789.84, -37338.30, -21059.37, 6887.98, -26909.22, -35305.90, 0.00, 0.00, 0.00
117, -14005.96, 33852.79, -26812.57, -37359.55, -21039.32, 6743.25, -26868.56, -35304.33, -0.08, 0.92, 0.30
119, -14025.67, 33822.43, -26849.63, -37377.75, -21058.74, 6804.50, -26903.97, -35333.68, 0.00, 0.00, 0.00
121, -14010.05, 33820.29, -26849.36, -37384.10, -21096.87, 6696.60, -26905.49, -35314.44, 0.00, 0.00, 0.00
123, -14029.94, 33781.89, -26861.68, -37383.36, -21024.86, 6796.79, -26910.02, -35350.87, 0.00, 0.00, 0.00
125, -14018.28, 33784.64, -26857.10, -37375.40, -21057.73, 6792.94, -26894.87, -35287.19, 0.00, 0.00, 0.00
127, -14065.21, 33744.38, -26839.62, -37400.50, -21108.29, 6827.88, -26935.62, -35307.84, -0.13, 0.93, 0.31
129, -14058.11, 33740.16, -26831.61, -37425.34, -21100.92, 6807.34, -26959.35, -35314.93, 0.00, 0.00, 0.00
131, -14091.75, 33696.86, -26858.10, -37419.81, -21108.21, 6788.65, -26944.11, -35309.86, 0.00, 0.00, 0.00
133, -14110.48, 33698.32, -26896.21, -37443.11, -21145.11, 6888.41, -26959.78, -35289.74, 0.00, 0.00, 0.00
135, -14086.09, 33717.29, -26877.48, -37418.25, -21116.54, 6874.37, -26918.90, -35272.55, 0.00, 0.00, 0.00
137, -14136.38, 33666.71, -26938.23, -37465.88, -21183.98, 6937.22, -26988.12, -35283.17, -0.13, 0.94, 0.35
139, -14136.45, 33661.17, -26944.56, -37448.36, -21193.61, 6816.21, -26998.85, -35251.63, 0.00, 0.00, 0.00
141, -14131.73, 33646.64, -26939.30, -37445.32, -21187.87, 6902.55, -27010.65, -35252.16, 0.00, 0.00, 0.00
143, -14136.90, 33616.66, -26937.81, -37449.21, -21185.85, 6758.70, -27014.00, -35250.84, 0.00, 0.00, 0.00
145, -14143.54, 33622.63, -26937.20, -37462.55, -21191.35, 6866.05, -27022.95, -35259.36, 0.00, 0.00, 0.00
147, -14104.64, 33622.99, -26902.67, -37427.37, -21158.96, 6732.03, -27006.56, -35240.00, -0.13, 0.93, 0.40
149, -14138.10, 33628.18, -26931.19, -37468.52, -21176.29, 6819.11, -27052.25, -35294.48, 0.00, 0.00, 0.00
151, -14112.78, 33604.64, -26918.29, -37436.42, -21181.27, 6618.64, -27059.33, -35285.56, 0.00, 0.00, 0.00
153, -14166.80, 33532.69, -26962.26, -37458.97, -21208.07, 6798.13, -27116.06, -35359.88, 0.00, 0.00, 0.00
155, -14118.12, 33581.44, -26913.87, -37414.56, -21153.85, 6650.27, -27077.97, -35308.98, 0.00, 0.00, 0.00
157, -14146.20, 33549.34, -26952.20, -37447.39, -21184.67, 6740.57, -27091.19, -35352.50, -0.11, 0.88, 0.43
159, -14098.67, 33584.64, -26932.58, -37416.06, -21157.09, 6599.31, -27068.50, -35350.98, 0.00, 0.00, 0.00
161, -14114.95, 33549.16, -26961.30, -37420.98, -21142.98, 6723.72, -27064.65, -35363.43, 0.00, 0.00, 0.00
163, -14074.60, 33597.22, -26944.85, -37398.63, -21113.93, 6629.75, -27027.28, -35319.82, 0.00, 0.00, 0.00
165, -14089.40, 33602.05, -26978.46, -37413.00, -21154.07, 6734.27, -26994.92, -35306.21, 0.00, 0.00, 0.00
167, -14101.16, 33578.87, -26998.00, -37441.92, -21154.70, 6637.55, -27005.47, -35322.82, -0.08, 0.89, 0.45
169, -14130.77, 33525.07, -27037.50, -37456.70, -21149.31, 6737.58, -27025.00, -35353.06, 0.00, 0.00, 0.00
171, -14114.70, 33551.55, -27016.91, -37450.04, -21151.81, 6650.23, -27004.59, -35332.45, 0.00, 0.00, 0.00
173, -14088.73, 33561.05, -27004.84, -37424.73, -21136.75, 6727.79, -26981.39, -35313.09, 0.00, 0.00, 0.00
175, -14091.92, 33551.40, -27025.72, -37462.50, -21177.83, 6704.27, -27005.42, -35353.69, 0.00, 0.00, 0.00
177, -14056.74, 33552.79, -27011.32, -37436.06, -21145.80, 6725.95, -26967.74, -35273.33, -0.04, 0.88, 0.46
179, -14097.60, 33541.99, -27021.29, -37456.80, -21130.85, 6752.33, -27011.12, -35335.67, 0.00, 0.00, 0.00
181, -14060.52, 33588.43, -26953.72, -37383.94, -21097.47, 6728.46, -26927.28, -35272.21, 0.00, 0.00, 0.00
183, -14056.12, 33587.54, -26977.28, -37429.31, -21116.16, 6792.43, -26990.92, -35339.71, 0.00, 0.00, 0.00
185, -14046.71, 33561.59, -26942.93, -37390.94, -21088.91, 6693.70, -26920.19, -35256.10, 0.00, 0.00, 0.00
187, -14047.51, 33576.14, -26964.18, -37411.81, -21137.31, 6800.05, -26967.36, -35271.25, -0.00, 0.87, 0.46
189, -14045.25, 33576.63, -26953.59, -37396.25, -21110.82, 6717.39, -26963.49, -35284.08, 0.00, 0.00, 0.00
191, -14068.99, 33554.88, -26971.09, -37426.52, -21099.13, 6809.44, -26994.22, -35322.77, 0.00, 0.00, 0.00
193, -14028.60, 33579.72, -26950.17, -37404.10, -21100.00, 6648.21, -26958.10, -35292.46, 0.00, 0.00, 0.00
195, -14058.75, 33550.53, -26959.44, -37410.43, -21116.27, 6786.68, -26964.23, -35247.11, 0.00, 0.00, 0.00
197, -14038.55, 33576.63, -26939.75, -37392.59, -21118.13, 6647.10, -26947.69, -35237.34, 0.02, 0.87, 0.46
199, -14030.39, 33607.05, -26970.75, -37423.17, -21090.84, 6839.88, -26991.16, -35274.96, 0.00, 0.00, 0.00
201, -14010.43, 33593.02, -26933.20, -37363.04, -21065.49, 6715.65, -26960.72, -35247.83, 0.00, 0.00, 0.00
203, -14057.66, 33563.18, -26967.65, -37402.98, -21084.42, 6858.81, -26993.96, -35298.57, 0.00, 0.00, 0.00
205, -14028.60, 33578.09, -26940.96, -37403.77, -21064.48, 6712.50, -26993.31, -35297.29, 0.00, 0.00, 0.00
207, -14037.21, 33568.83, -26912.44, -37392.10, -21062.49, 6849.76, -26976.79, -35299.71, -0.02, 0.86, 0.47
209, -14016.29, 33571.87, -26889.01, -37407.92, -21078.30, 6764.15, -26992.99, -35295.28, 0.00, 0.00, 0.00
211, -14036.60, 33578.11, -26873.75, -37415.16, -21086.59, 6856.02, -26994.56, -35316.25, 0.00, 0.00, 0.00
213, -14026.37, 33569.70, -26843.48, -37404.59, -21083.37, 6743.81, -27005.24, -35313.41, 0.00, 0.00, 0.00
215, -14027.46, 33561.84, -26820.21, -37397.08, -21072.55, 6793.07, -26985.33, -35305.45, 0.00, 0.00, 0.00
217, -14017.29, 33579.89, -26809.40, -37414.38, -21048.44, 6737.51, -26997.46, -35313.43, -0.06, 0.86, 0.47
219, -14021.54, 33542.93, -26805.53, -37409.38, -21094.50, 6733.24, -26960.03, -35314.46, 0.00, 0.00, 0.00
221, -14008.67, 33546.41, -26790.40, -37427.41, -21041.17, 6685.85, -26983.72, -35323.67, 0.00, 0.00, 0.00
223, -13990.87, 33558.42, -26743.01, -37378.20, -21015.15, 6736.46, -26915.86, -35285.74, 0.00, 0.00, 0.00
225, -13993.06, 33527.91, -26765.12, -37405.73, -21073.60, 6775.57, -26946.28, -35300.18, 0.00, 0.00, 0.00
227, -14006.81, 33519.66, -26743.91, -37371.69, -21017.05, 6755.39, -26898.24, -35271.59, -0.10, 0.88, 0.47
229, -14001.45, 33484.41, -26783.22, -37409.80, -21057.78, 6803.85, -26954.39, -35325.57, 0.00, 0.00, 0.00
231, -13969.48, 33498.47, -26752.82, -37353.05, -21025.55, 6740.70, -26916.97, -35302.14, 0.00, 0.00, 0.00
233, -13984.88, 33487.41, -26759.75, -37365.01, -21072.26, 6839.95, -26955.96, -35339.31, 0.00, 0.00, 0.00
235, -13965.48, 33500.82, -26749.43, -37343.82, -21029.73, 6779.24, -26898.40, -35313.83, 0.00, 0.00, 0.00
237, -13985.80, 33461.66, -26804.68, -37360.40, -21070.34, 6906.44, -26910.87, -35356.59, -0.14, 0.87, 0.45
239, -13949.01, 33473.03, -26789.86, -37323.48, -21034.80, 6791.40, -26881.75, -35335.09, 0.00, 0.00, 0.00
241, -13975.67, 33425.31, -26822.67, -37343.75, -21090.52, 6942.32, -26879.92, -35343.89, 0.00, 0.00, 0.00
243, -13931.53, 33437.00, -26808.62, -37331.73, -21043.81, 6885.23, -26913.71, -35342.84, 0.00, 0.00, 0.00
245, -13971.32, 33399.59, -26824.15, -37351.24, -21049.04, 7094.69, -26893.33, -35351.56, 0.00, 0.00, 0.00
247, -13966.46, 33408.13, -26809.73, -37330.14, -21063.03, 7027.01, -26830.52, -35308.60, -0.14, 0.87, 0.45
249, -13977.08, 33379.71, -26816.42, -37321.91, -21060.51, 7169.72, -26840.87, -35335.00, 0.00, 0.00, 0.00
251, -13958.40, 33378.33, -26812.62, -37319.68, -21036.43, 7111.39, -26853.34, -35330.08, 0.00, 0.00, 0.00
253, -13989.08, 33302.11, -26834.21, -37318.40, -21106.62, 7254.84, -26886.87, -35353.30, 0.00, 0.00, 0.00
255, -13970.44, 33311.96, -26815.03, -37296.28, -21089.72, 7163.42, -26883.87, -35300.49, 0.00, 0.00, 0.00
1, -13992.77, 33257.70, -26841.79, -37292.36, -21060.13, 7263.11, -26892.59, -35316.67, -0.08, 0.83, 0.46
3, -13971.27, 33270.28, -26874.89, -37300.46, -21059.14, 7180.59, -26929.65, -35304.38, 0.00, 0.00, 0.00
5, -14003.28, 33271.98, -26941.27, -37308.28, -21118.89, 7228.02, -26970.35, -35327.16, 0.00, 0.00, 0.00
7, -13989.71, 33300.01, -26939.13, -37304.64, -21081.09, 7129.16, -26959.98, -35300.96, 0.00, 0.00, 0.00
9, -13972.99, 33295.29, -26928.84, -37324.64, -21041.02, 7162.86, -26922.38, -35335.45, 0.00, 0.00, 0.00
11, -13959.51, 33202.84, -26878.11, -37276.20, -21038.94, 7150.30, -26917.51, -35207.98, -0.07, 0.80, 0.47
13, -14013.11, 33170.46, -26849.83, -37287.27, -21039.90, 7159.22, -26972.14, -35245.55, 0.00, 0.00, 0.00
15, -13996.42, 33212.88, -26812.55, -37305.66, -21082.99, 7127.39, -27016.98, -35272.08, 0.00, 0.00, 0.00
17, -13960.68, 33194.30, -26740.26, -37270.57, -21024.32, 7137.90, -26986.98, -35231.58, 0.00, 0.00, 0.00
19, -14001.91, 33194.93, -26730.47, -37315.14, -21104.90, 7171.29, -27019.53, -35244.92, 0.00, 0.00, 0.00
21, -13991.90, 33211.65, -26706.00, -37312.44, -21068.51, 7100.59, -27011.77, -35237.01, 0.00, 0.00, 0.00
23, -14003.05, 33161.58, -26722.98, -37330.56, -21075.91, 7180.25, -27024.93, -35258.22, 0.00, 0.00, 0.00
25, -13978.76, 33194.08, -26704.10, -37315.68, -21045.66, 7084.68, -26978.62, -35221.25, 0.00, 0.00, 0.00
27, -14017.63, 33155.13, -26754.03, -37353.68, -21060.62, 7151.40, -27010.14, -35268.05, 0.00, 0.00, 0.00
29, -13960.45, 33193.19, -26726.05, -37307.81, -21009.79, 7056.36, -26918.34, -35198.16, 0.00, 0.00, 0.00
31, -13979.76, 33159.80, -26747.71, -37332.08, -21020.52, 7181.73, -26938.77, -35217.90, 0.00, 0.00, 0.00
33, -13957.75, 33187.51, -26764.96, -37310.45, -21164.15, 7027.10, -27003.07, -35198.72, 0.00, 0.00, 0.00
35, -13975.47, 33108.61, -26792.01, -37328.30, -20983.95, 7236.13, -26891.70, -35220.80, 0.00, 0.00, 0.00
37, -13957.26, 33124.48, -26775.22, -37274.93, -20974.45, 7133.63, -26863.71, -35196.04, 0.00, 0.00, 0.00
39, -13987.94, 33080.67, -26812.12, -37277.21, -21015.49, 7307.84, -26897.84, -35229.12, 0.00, 0.00, 0.00
41, -13938.59, 33121.06, -26769.50, -37251.98, -21011.33, 7157.72, -26926.07, -35187.23, 0.00, 0.00, 0.00
43, -13973.64, 33055.90, -26787.87, -37256.16, -21034.11, 7275.94, -26951.06, -35212.89, 0.00, 0.00, 0.00
45, -13960.76, 33081.63, -26797.10, -37238.68, -21018.35, 7136.44, -26973.73, -35204.46, 0.00, 0.00, 0.00
47, -13976.57, 33072.71, -26842.14, -37258.57, -21060.84, 7203.54, -26996.91, -35227.96, 0.00, 0.00, 0.00
49, -13936.74, 33127.92, -26802.36, -37231.68, -21030.87, 7110.92, -26980.92, -35171.52, 0.00, 0.00, 0.00
51, -13949.25, 33113.86, -26817.20, -37247.86, -20994.99, 7271.78, -26958.48, -35186.09, 0.00, 0.00, 0.00
53, -13962.17, 33099.16, -26819.61, -37254.97, -21087.89, 7172.90, -27003.86, -35205.94, 0.00, 0.00, 0.00
55, -13959.87, 33127.43, -26805.33, -37253.34, -21022.51, 7250.23, -27041.86, -35202.81, 0.00, 0.00, 0.00
57, -13944.34, 33191.42, -26770.75, -37239.32, -20993.00, 7221.69, -27023.30, -35199.97, 0.00, 0.00, 0.00
59, -13986.74, 33150.99, -26810.16, -37272.80, -21089.90, 7290.24, -27030.43, -35233.16, 0.00, 0.00, 0.00
61, -13956.79, 33180.67, -26792.23, -37286.13, -21033.26, 7240.31, -27050.68, -35230.35, 0.00, 0.00, 0.00
63, -13949.88, 33198.17, -26765.74, -37266.14, -21028.10, 7234.28, -27026.77, -35211.77, 0.00, 0.00, 0.00
65, -13953.59, 33173.56, -26786.71, -37285.75, -21038.29, 7226.18, -27013.96, -35240.34, 0.00, 0.00, 0.00
67, -13933.12, 33171.84, -26751.39, -37241.45, -20963.92, 7214.49, -26959.13, -35198.79, 0.00, 0.00, 0.00
69, -13962.78, 33168.78, -26786.98, -37287.54, -21037.53, 7253.77, -27060.74, -35266.98, 0.00, 0.00, 0.00
71, -13924.73, 33200.97, -26752.85, -37254.90, -21018.35, 7197.62, -26923.86, -35211.13, 0.00, 0.00, 0.00
73, -13948.29, 33166.55, -26758.55, -37261.45, -20974.12, 7318.18, -26818.54, -35208.38, 0.00, 0.00, 0.00
75, -13930.52, 33169.94, -26766.08, -37246.10, -20976.37, 7208.79, -26897.80, -35223.13, 0.00, 0.00, 0.00
77, -13961.35, 33128.55, -26823.48, -37298.31, -20964.30, 7317.67, -26821.49, -35256.88, 0.00, 0.00, 0.00
79, -13931.42, 33124.61, -26797.93, -37221.11, -20946.02, 7217.45, -26720.71, -35155.38, 0.00, 0.00, 0.00
81, -13931.86, 33069.85, -26836.11, -37217.31, -21044.77, 7387.21, -26753.12, -35179.66, 0.00, 0.00, 0.00
83, -13931.62, 33028.64, -26842.86, -37222.45, -20972.28, 7224.02, -26842.70, -35189.16, 0.00, 0.00, 0.00
85, -13959.27, 32956.91, -26862.15, -37212.30, -20952.64, 7368.07, -26761.61, -35167.92, 0.00, 0.00, 0.00
87, -13924.44, 32917.86, -26877.05, -37214.51, -20976.93, 7210.34, -26798.36, -35178.49, 0.00, 0.00, 0.00
89, -13954.98, 32858.25, -26879.45, -37206.49, -21057.89, 7352.92, -26840.38, -35202.97, 0.00, 0.00, 0.00
91, -13955.80, 32768.21, -26886.76, -37229.55, -21047.83, 7176.05, -26855.69, -35227.20, 0.00, 0.00, 0.00
93, -13956.29, 32745.51, -26878.69, -37242.79, -21073.94, 7320.73, -26823.37, -35194.50, 0.00, 0.00, 0.00
95, -14010.52, 32669.60, -26934.83, -37310.00, -21222.49, 7156.29, -26972.61, -35285.16, 0.00, 0.00, 0.00
97, -13974.40, 32683.68, -26864.85, -37240.62, -21085.05, 7353.88, -26891.74, -35209.23, 0.00, 0.00, 0.00
99, -13983.94, 32657.26, -26850.59, -37264.27, -21079.37, 7228.80, -26909.20, -35245.37, 0.00, 0.00, 0.00
101, -13988.82, 32614.17, -26827.50, -37227.37, -21065.11, 7335.51, -26837.72, -35146.04, 0.00, 0.00, 0.00
103, -13966.35, 32620.47, -26795.92, -37230.99, -21059.43, 7247.51, -26842.16, -35127.38, 0.00, 0.00, 0.00
105, -13981.04, 32572.93, -26779.38, -37219.83, -21066.32, 7307.14, -26824.91, -35094.05, 0.00, 0.00, 0.00
107, -13979.99, 32548.21, -26765.92, -37250.34, -21081.40, 7253.61, -26845.32, -35094.29, 0.00, 0.00, 0.00
109, -14016.29, 32486.43, -26761.05, -37260.60, -21082.66, 7251.98, -26815.43, -35098.29, 0.00, 0.00, 0.00
111, -13993.31, 32499.97, -26716.19, -37248.00, -21050.25, 7255.02, -26871.96, -35097.36, 0.00, 0.00, 0.00
113, -14068.54, 32411.06, -26756.51, -37310.11, -21109.50, 7207.27, -26922.43, -35153.05, 0.00, 0.00, 0.00
115, -14039.98, 32433.43, -26736.91, -37312.30, -21120.36, 7216.01, -26937.00, -35150.78, 0.00, 0.00, 0.00
117, -14014.25, 32405.11, -26714.47, -37300.28, -21090.81, 7154.37, -26904.95, -35126.41, 0.00, 0.00, 0.00
119, -14031.42, 32427.55, -26751.28, -37334.07, -21141.87, 7185.01, -26956.45, -35197.83, 0.00, 0.00, 0.00
121, -13975.88, 32442.57, -26706.53, -37273.48, -21075.01, 7082.95, -26896.50, -35178.58, 0.00, 0.00, 0.00
123, -13939.08, 32485.18, -26705.06, -37260.85, -21047.54, 7231.48, -26910.94, -35203.75, 0.00, 0.00, 0.00
125, -13943.55, 32437.21, -26720.06, -37247.59, -21098.17, 7112.24, -26936.20, -35244.32, 0.00, 0.00, 0.00
127, -13977.46, 32477.40, -26753.74, -37286.93, -21091.44, 7222.90, -26956.40, -35271.57, 0.00, 0.00, 0.00
129, -13937.74, 32544.70, -26710.02, -37264.52, -21053.29, 7141.23, -26911.68, -35203.19, 0.00, 0.00, 0.00
131, -13972.23, 32534.55, -26758.72, -37334.03, -21106.53, 7266.31, -26977.97, -35224.09, 0.00, 0.00, 0.00
133, -13959.98, 32588.84, -26764.80, -37348.89, -21162.59, 7048.33, -26967.96, -35222.59, 0.00, 0.00, 0.00
135, -13963.33, 32568.93, -26739.08, -37302.54, -21068.11, 7180.92, -26879.78, -35205.92, 0.00, 0.00, 0.00
137, -13941.05, 32612.04, -26738.92, -37295.80, -21064.04, 6959.13, -26923.14, -35211.98, 0.00, 0.00, 0.00
139, -13955.45, 32613.12, -26757.03, -37311.65, -21130.71, 7114.25, -26980.57, -35280.59, 0.00, 0.00, 0.00
141, -13919.75, 32643.43, -26723.34, -37308.97, -21089.47, 6967.08, -26879.67, -35212.24, 0.00, 0.00, 0.00
143, -13937.63, 32624.31, -26713.73, -37307.88, -21038.78, 7104.73, -26869.68, -35217.50, 0.00, 0.00, 0.00
145, -13899.12, 32635.65, -26716.23, -37293.41, -21055.05, 7040.04, -26898.65, -35218.84, 0.00, 0.00, 0.00
147, -13881.53, 32668.93, -26717.82, -37285.19, -21050.67, 7212.46, -26911.21, -35275.59, 0.00, 0.00, 0.00
149, -13895.10, 32640.12, -26714.67, -37285.59, -21073.38, 7188.07, -26883.56, -35237.97, 0.00, 0.00, 0.00
151, -13911.30, 32652.84, -26736.17, -37290.98, -21114.53, 7318.83, -26898.74, -35262.04, 0.00, 0.00, 0.00
153, -13910.81, 32646.04, -26731.66, -37299.52, -21043.36, 7287.81, -26884.65, -35272.04, 0.00, 0.00, 0.00
155, -13866.40, 32708.89, -26677.05, -37240.04, -21011.89, 7314.36, -26828.44, -35196.13, 0.00, 0.00, 0.00
157, -13863.51, 32717.88, -26699.11, -37283.16, -21066.05, 7302.38, -26896.35, -35232.32, 0.00, 0.00, 0.00
159, -13875.72, 32662.29, -26703.47, -37281.34, -21050.02, 7295.68, -26914.16, -35251.89, 0.00, 0.00, 0.00
161, -13850.24, 32679.10, -26690.15, -37271.11, -21037.66, 7360.74, -26872.88, -35229.63, 0.00, 0.00, 0.00
163, -13849.83, 32686.21, -26691.20, -37274.35, -21031.07, 7280.88, -26881.23, -35223.64, 0.00, 0.00, 0.00
165, -13857.68, 32703.60, -26704.90, -37282.15, -21039.50, 7333.99, -26858.62, -35224.34, 0.00, 0.00, 0.00
167, -13845.88, 32674.40, -26690.37, -37248.53, -21034.64, 7202.31, -26842.30, -35181.29, 0.00, 0.00, 0.00
169, -13862.01, 32721.92, -26732.48, -37274.08, -21074.92, 7335.24, -26876.32, -35219.51, 0.00, 0.00, 0.00
171, -13846.70, 32644.41, -26726.81, -37237.11, -21071.50, 7192.39, -26849.94, -35222.05, 0.00, 0.00, 0.00
173, -13844.85, 32690.72, -26737.09, -37238.65, -21040.41, 7342.79, -26837.16, -35183.86, 0.00, 0.00, 0.00
175, -13823.86, 32672.17, -26718.78, -37209.13, -21035.81, 7148.56, -26837.00, -35161.80, 0.00, 0.00, 0.00
177, -13815.48, 32675.77, -26732.84, -37202.38, -21116.94, 7334.81, -26811.63, -35166.09, 0.00, 0.00, 0.00
179, -13818.56, 32678.94, -26754.12, -37216.79, -21070.45, 7235.80, -26869.23, -35216.36, 0.00, 0.00, 0.00
181, -13875.72, 32644.21, -26773.07, -37218.58, -20998.59, 7445.68, -26887.25, -35270.92, 0.00, 0.00, 0.00
183, -13842.14, 32669.80, -26805.46, -37236.29, -21092.69, 7205.71, -26931.75, -35264.50, 0.00, 0.00, 0.00
185, -13856.16, 32662.89, -26831.37, -37222.29, -21110.02, 7367.56, -26889.82, -35254.40, 0.00, 0.00, 0.00
187, -13896.79, 32612.15, -26856.16, -37236.69, -21067.30, 7261.28, -26899.90, -35272.82, 0.00, 0.00, 0.00
189, -13873.55, 32636.23, -26845.72, -37235.34, -21054.76, 7385.75, -26903.07, -35266.67, 0.00, 0.00, 0.00
191, -13866.78, 32616.89, -26830.01, -37255.55, -21032.81, 7132.20, -26846.32, -35150.82, 0.00, 0.00, 0.00
193, -13871.13, 32677.76, -26831.68, -37228.95, -21060.48, 7210.47, -26825.36, -35198.50, 0.00, 0.00, 0.00
195, -13893.42, 32636.70, -26833.96, -37260.54, -21029.73, 7044.06, -26848.60, -35196.87, 0.00, 0.00, 0.00
197, -13903.88, 32642.24, -26838.10, -37284.14, -21035.61, 7068.54, -26786.15, -35107.06, 0.00, 0.00, 0.00
199, -13872.25, 32736.19, -26827.90, -37265.81, -21036.77, 6923.63, -26771.60, -35092.02, 0.00, 0.00, 0.00
201, -13896.79, 32721.14, -26838.90, -37251.46, -21065.42, 6886.10, -26844.36, -35129.81, 0.00, 0.00, 0.00
203, -13869.75, 32772.21, -26821.91, -37232.73, -21062.43, 6756.93, -26876.09, -35126.41, 0.00, 0.00, 0.00
205, -13894.18, 32825.03, -26860.07, -37251.68, -21066.76, 6670.21, -26970.69, -35237.52, 0.00, 0.00, 0.00
207, -13898.81, 32862.59, -26858.23, -37252.45, -21093.72, 6561.18, -26942.86, -35235.49, 0.00, 0.00, 0.00
209, -13885.73, 32863.43, -26844.82, -37246.19, -21041.98, 6466.83, -26848.38, -35191.17, 0.00, 0.00, 0.00
211, -13897.22, 32843.65, -26870.13, -37294.06, -21070.27, 6457.82, -27013.78, -35312.92, 0.00, 0.00, 0.00
213, -13842.35, 32879.39, -26788.32, -37242.86, -21011.18, 6324.45, -26821.11, -35074.25, 0.00, 0.00, 0.00
215, -13890.42, 32899.93, -26806.87, -37279.09, -21125.21, 6373.29, -26921.69, -35154.46, 0.00, 0.00, 0.00
217, -13854.93, 32905.30, -26764.74, -37231.95, -21027.83, 6202.14, -26927.03, -35138.48, 0.00, 0.00, 0.00
219, -13872.86, 32948.84, -26810.98, -37266.08, -21058.07, 6262.33, -26997.67, -35189.67, 0.00, 0.00, 0.00
221, -13840.16, 32994.26, -26812.28, -37262.57, -21082.08, 6046.91, -26950.37, -35197.65, 0.00, 0.00, 0.00
223, -13878.60, 33035.00, -26834.10, -37291.11, -21057.04, 6207.95, -26943.62, -35239.51, 0.00, 0.00, 0.00
225, -13819.21, 33150.18, -26772.16, -37243.97, -20987.37, 6104.15, -26899.97, -35206.03, 0.00, 0.00, 0.00
227, -13841.45, 33240.20, -26818.90, -37299.29, -21062.76, 6283.52, -26953.63, -35235.94, 0.00, 0.00, 0.00
229, -13834.70, 33202.20, -26808.39, -37273.12, -21035.40, 6196.69, -26912.88, -35246.75, 0.00, 0.00, 0.00
231, -13864.03, 33223.61, -26868.79, -37310.60, -21086.59, 6337.70, -26964.90, -35296.80, 0.00, 0.00, 0.00
233, -13827.26, 33236.33, -26856.63, -37269.57, -21030.49, 6233.81, -26860.65, -35203.95, 0.00, 0.00, 0.00
235, -13875.52, 33271.98, -26916.33, -37355.26, -21117.84, 6368.48, -26953.16, -35275.54, 0.00, 0.00, 0.00
237, -13795.03, 33349.34, -26851.06, -37280.43, -21125.95, 6315.10, -26947.06, -35258.20, 0.00, 0.00, 0.00
239, -13815.86, 33345.54, -26845.83, -37291.09, -21058.14, 6427.06, -26821.62, -35208.22, 0.00, 0.00, 0.00
241, -13766.30, 33465.68, -26784.14, -37260.58, -20986.79, 6223.02, -26840.87, -35174.78, 0.00, 0.00, 0.00
243, -13791.65, 33472.36, -26834.23, -37295.00, -21122.00, 6228.67, -26968.12, -35233.70, 0.00, 0.00, 0.00
245, -13714.40, 33552.27, -26728.80, -37200.61, -20959.77, 6260.66, -26798.20, -35186.27, 0.00, 0.00, 0.00
247, -13732.38, 33525.34, -26768.09, -37197.23, -21074.50, 6342.42, -26906.09, -35231.20, 0.00, 0.00, 0.00
249, -13781.68, 33497.98, -26794.53, -37279.02, -21101.72, 6215.95, -26933.45, -35274.23, 0.00, 0.00, 0.00
251, -13712.15, 33507.14, -26738.21, -37205.80, -21019.40, 6271.07, -26913.60, -35250.18, 0.00, 0.00, 0.00
253, -13817.60, 33445.94, -26787.92, -37293.57, -21102.13, 6237.21, -26993.55, -35314.75, 0.00, 0.00, 0.00
255, -13732.67, 33537.99, -26671.67, -37230.96, -21119.20, 6267.94, -26910.31, -35244.50, 0.00, 0.00, 0.00
1, -13792.52, 33534.43, -26671.69, -37355.78, -21056.77, 6238.33, -26995.56, -35268.05, 0.00, 0.00, 0.00
3, -13793.95, 33466.13, -26644.17, -37307.88, -21045.80, 6173.42, -26880.70, -35250.51, 0.00, 0.00, 0.00
5, -13874.38, 33401.64, -26671.06, -37418.18, -21061.33, 6202.63, -26862.93, -35384.40, 0.00, 0.00, 0.00
7, -13777.95, 33478.04, -26497.86, -37290.33, -20932.77, 6324.96, -26692.83, -35333.64, 0.00, 0.00, 0.00
9, -13811.41, 33477.68, -26505.08, -37338.23, -20997.94, 6932.64, -26724.84, -35513.25, 0.00, 0.00, 0.00
11, -13861.46, 33455.20, -26513.88, -37336.80, -21064.04, 7825.23, -26690.87, -35545.38, 0.00, 0.00, 0.00
13, -13985.35, 33332.04, -26637.22, -37387.25, -21064.93, 8972.73, -26769.03, -35637.98, 0.00, 0.00, 0.00
15, -14009.76, 33306.67, -26716.62, -37386.33, -21100.78, 9488.11, -26742.25, -35581.50, 0.00, 0.00, 0.00
17, -14073.06, 33229.76, -26788.72, -37408.32, -21087.33, 9989.78, -26746.57, -35548.44, 0.00, 0.00, 0.00
19, -14046.80, 33189.21, -26789.03, -37350.46, -21011.71, 9557.36, -26687.33, -35450.31, 0.00, 0.00, 0.00
21, -14070.07, 33120.66, -26793.06, -37346.10, -21005.19, 8880.66, -26658.01, -35451.34, 0.00, 0.00, 0.00
23, -14068.17, 33053.63, -26771.02, -37316.39, -20960.35, 7711.96, -26633.96, -35363.27, 0.00, 0.00, 0.00
25, -14078.76, 33008.70, -26800.84, -37279.64, -20929.03, 6975.44, -26582.17, -35380.48, 0.00, 0.00, 0.00
27, -14092.35, 32946.11, -26799.96, -37247.37, -20959.50, 6439.94, -26567.57, -35325.52, 0.00, 0.00, 0.00
29, -14173.24, 32826.46, -26870.33, -37271.38, -21030.58, 6739.79, -26631.72, -35371.07, 0.00, 0.00, 0.00
31, -14196.98, 32768.15, -26924.93, -37258.25, -21046.00, 6966.12, -26616.86, -35334.60, 0.00, 0.00, 0.00
33, -14244.30, 32724.27, -26944.00, -37237.09, -21098.86, 7420.80, -26632.21, -35334.87, 0.00, 0.00, 0.00
35, -14248.16, 32715.58, -26942.03, -37248.82, -21111.54, 7486.18, -26699.81, -35287.14, 0.00, 0.00, 0.00
37, -14265.64, 32666.47, -26909.91, -37255.17, -21119.45, 7449.93, -26761.47, -35232.27, 0.00, 0.00, 0.00
39, -14252.86, 32618.37, -26847.64, -37252.67, -21148.91, 7025.69, -26869.19, -35164.52, 0.00, 0.00, 0.00
41, -14238.04, 32629.03, -26818.45, -37213.73, -21144.71, 6347.09, -26907.34, -35143.07, 0.00, 0.00, 0.00
43, -14245.93, 32648.43, -26798.49, -37219.12, -21137.75, 5867.96, -26850.61, -35184.39, 0.00, 0.00, 0.00
45, -14236.99, 32686.29, -26789.15, -37196.30, -21154.61, 5615.70, -26913.33, -35226.41, 0.00, 0.00, 0.00
47, -14272.10, 32680.37, -26763.49, -37248.55, -21202.69, 5511.25, -27051.58, -35331.76, 0.00, 0.00, 0.00
49, -14264.48, 32694.59, -26708.03, -37200.88, -21169.47, 5477.61, -27044.65, -35257.48, 0.00, 0.00, 0.00
51, -14282.18, 32714.97, -26695.83, -37237.02, -21236.53, 5577.52, -27012.06, -35286.52, 0.00, 0.00, 0.00
53, -14298.21, 32671.61, -26714.85, -37241.04, -21185.85, 5750.30, -27039.60, -35399.17, 0.00, 0.00, 0.00
55, -14348.08, 32634.39, -26781.99, -37314.34, -21228.63, 5976.70, -27041.63, -35452.12, 0.00, 0.00, 0.00
57, -14348.86, 32637.97, -26785.03, -37323.10, -21234.63, 5956.38, -27031.33, -35419.18, 0.00, 0.00, 0.00
59, -14352.26, 32651.58, -26777.52, -37325.67, -21234.65, 6280.68, -27030.86, -35422.82, 0.00, 0.00, 0.00
61, -14381.76, 32608.20, -26748.62, -37337.89, -21149.31, 6343.18, -26988.57, -35352.88, 0.00, 0.00, 0.00
63, -14400.04, 32608.94, -26746.01, -37349.52, -21184.45, 6640.61, -26953.43, -35404.02, 0.00, 0.00, 0.00
65, -14343.36, 32651.34, -26661.36, -37284.03, -21059.16, 6584.89, -26852.00, -35265.73, 0.00, 0.00, 0.00
67, -14419.74, 32573.91, -26716.41, -37347.33, -21100.52, 6819.58, -26900.59, -35360.32, 0.00, 0.00, 0.00
69, -14378.41, 32588.42, -26686.02, -37302.49, -21067.84, 6803.45, -26825.42, -35240.74, 0.00, 0.00, 0.00
71, -14422.42, 32528.11, -26737.94, -37297.75, -21086.95, 7080.56, -26818.90, -35280.93, 0.00, 0.00, 0.00
73, -14412.34, 32486.16, -26768.81, -37293.13, -21104.25, 7029.44, -26818.07, -35259.85, 0.00, 0.00, 0.00
75, -14448.61, 32458.06, -26815.30, -37304.79, -21145.29, 7219.57, -26854.30, -35319.60, 0.00, 0.00, 0.00
77, -14416.36, 32466.00, -26817.46, -37284.21, -21151.50, 7079.87, -26880.34, -35309.92, 0.00, 0.00, 0.00
79, -14468.04, 32408.66, -26867.36, -37305.35, -21187.93, 7211.77, -26906.52, -35343.47, 0.00, 0.00, 0.00
81, -14475.64, 32370.22, -26877.99, -37316.55, -21200.88, 7086.13, -26924.87, -35371.84, 0.00, 0.00, 0.00
83, -14509.84, 32253.54, -26859.60, -37278.48, -21170.92, 7163.51, -26883.20, -35327.60, 0.00, 0.00, 0.00
85, -14547.27, 32246.03, -26868.00, -37301.75, -21208.88, 7119.28, -26910.14, -35324.20, 0.00, 0.00, 0.00
87, -14420.23, 32323.53, -26872.67, -37328.30, -21241.06, 7177.10, -26941.63, -35380.44, 0.00, 0.00, 0.00
89, -14455.83, 32176.65, -26828.60, -37319.63, -21225.28, 7132.96, -26981.10, -35408.09, 0.00, 0.00, 0.00
91, -14408.09, 32249.99, -26788.19, -37295.80, -21194.95, 7155.33, -26928.04, -35406.14, 0.00, 0.00, 0.00
93, -14541.96, 32209.04, -26757.29, -37287.16, -21187.93, 7196.01, -26941.21, -35363.03, 0.00, 0.00, 0.00
95, -14817.60, 32142.57, -26718.54, -37244.73, -21148.13, 7134.61, -26927.39, -35367.36, 0.00, 0.00, 0.00
97, -15234.66, 32178.31, -26717.66, -37249.45, -21162.38, 7187.69, -27003.68, -35426.13, 0.00, 0.00, 0.00
99, -15519.91, 32291.77, -26726.81, -37230.67, -21173.47, 7141.38, -27026.92, -35386.03, 0.00, 0.00, 0.00
101, -15656.93, 32322.16, -26764.96, -37253.29, -21155.68, 7175.71, -27021.09, -35410.39, 0.00, 0.00, 0.00
103, -15780.58, 32048.98, -26746.54, -37219.21, -21169.27, 6713.21, -26976.65, -35433.23, 0.00, 0.00, 0.00
105, -15940.91, 32331.42, -26741.74, -37209.24, -21170.90, 6343.09, -27000.86, -35445.77, 0.00, 0.00, 0.00
107, -16051.93, 32794.30, -26742.30, -37207.96, -21163.32, 5850.03, -26992.95, -35429.88, 0.00, 0.00, 0.00
109, -16197.44, 33462.80, -26828.11, -37281.37, -21222.87, 5777.48, -27073.59, -35534.04, 0.00, 0.00, 0.00
111, -16213.15, 34003.33, -26827.99, -37273.79, -21206.02, 5507.54, -27046.77, -35512.00, 0.00, 0.00, 0.00
113, -16234.18, 34265.49, -26875.33, -37308.21, -21211.49, 5645.92, -27043.69, -35517.37, 0.00, 0.00, 0.00
115, -16113.68, 34437.64, -26852.00, -37275.27, -21181.70, 5477.81, -26973.32, -35450.96, 0.00, 0.00, 0.00
117, -16048.44, 34451.17, -26910.18, -37313.42, -21182.57, 5661.85, -27009.15, -35467.46, 0.00, 0.00, 0.00
119, -15903.69, 34409.08, -26905.49, -37311.07, -21183.98, 5529.84, -26986.40, -35438.82, 0.00, 0.00, 0.00
121, -15826.64, 34304.54, -26903.92, -37306.36, -21173.67, 5738.12, -26930.63, -35411.62, 0.00, 0.00, 0.00
123, -15748.41, 34223.31, -26893.95, -37312.39, -21183.78, 5659.66, -26906.09, -35394.14, 0.00, 0.00, 0.00
125, -15670.20, 34147.12, -26899.00, -37288.88, -21141.96, 5852.54, -26849.94, -35390.81, 0.00, 0.00, 0.00
127, -15586.88, 34060.95, -26908.53, -37292.48, -21161.63, 5770.30, -26829.63, -35383.84, 0.00, 0.00, 0.00
129, -15514.61, 33971.59, -26916.93, -37275.33, -21170.03, 5919.68, -26796.99, -35378.16, 0.00, 0.00, 0.00
131, -15445.99, 33901.45, -26906.58, -37277.66, -21188.34, 5814.27, -26864.65, -35405.30, 0.00, 0.00, 0.00
133, -15406.30, 33802.07, -26894.45, -37251.68, -21201.46, 5979.00, -26846.21, -35387.19, 0.00, 0.00, 0.00
135, -15348.43, 33718.59, -26879.07, -37262.05, -21199.31, 5901.15, -26905.11, -35444.59, 0.00, 0.00, 0.00
137, -15315.12, 33662.78, -26875.33, -37239.61, -21231.50, 5972.30, -26867.22, -35380.06, 0.00, 0.00, 0.00
139, -15303.01, 33556.02, -26895.96, -37268.67, -21210.93, 5996.21, -26881.73, -35413.36, 0.00, 0.00, 0.00
141, -15268.28, 33503.72, -26880.70, -37239.17, -21145.60, 6035.15, -26830.36, -35366.02, 0.00, 0.00, 0.00
143, -15262.64, 33453.43, -26902.02, -37262.35, -21163.21, 6099.10, -26836.84, -35367.10, 0.00, 0.00, 0.00
145, -15245.77, 33401.30, -26892.14, -37248.36, -21170.30, 6065.30, -26799.23, -35348.39, 0.00, 0.00, 0.00
147, -15228.71, 33386.11, -26898.49, -37262.43, -21152.39, 6177.96, -26824.46, -35343.61, 0.00, 0.00, 0.00
149, -15204.97, 33351.89, -26892.63, -37246.86, -21137.13, 6101.98, -26791.04, -35358.38, 0.00, 0.00, 0.00
151, -15188.05, 33350.10, -26871.67, -37230.59, -21136.90, 6238.24, -26783.22, -35330.82, 0.00, 0.00, 0.00
153, -15129.60, 33368.25, -26831.75, -37189.79, -21118.51, 6107.35, -26752.71, -35287.12, 0.00, 0.00, 0.00
155, -15149.83, 33334.07, -26824.69, -37208.55, -21149.73, 6281.29, -26801.39, -35348.48, 0.00, 0.00, 0.00
157, -15121.22, 33319.88, -26789.21, -37205.55, -21145.38, 6094.94, -26800.95, -35347.81, 0.00, 0.00, 0.00
159, -15139.80, 33311.43, -26806.47, -37230.50, -21156.39, 6235.26, -26822.47, -35376.60, 0.00, 0.00, 0.00
161, -15094.83, 33318.25, -26746.16, -37178.06, -21108.14, 6129.56, -26762.90, -35315.89, 0.00, 0.00, 0.00
163, -15129.14, 33287.87, -26778.17, -37195.63, -21113.70, 6300.33, -26755.08, -35329.12, 0.00, 0.00, 0.00
165, -15116.10, 33264.76, -26761.38, -37205.64, -21108.29, 6137.48, -26757.74, -35335.96, 0.00, 0.00, 0.00
167, -15119.55, 33261.77, -26770.13, -37203.41, -21090.01, 6356.63, -26720.66, -35328.09, 0.00, 0.00, 0.00
169, -15086.89, 33272.61, -26714.94, -37165.90, -21050.29, 6246.28, -26673.14, -35281.60, 0.00, 0.00, 0.00
171, -15137.25, 33233.38, -26761.61, -37203.34, -21062.54, 6455.21, -26687.07, -35322.82, 0.00, 0.00, 0.00
173, -15115.81, 33232.64, -26743.35, -37207.47, -21070.97, 6345.32, -26701.71, -35322.59, 0.00, 0.00, 0.00
175, -15120.53, 33243.41, -26744.02, -37196.39, -21086.23, 6479.30, -26713.55, -35348.41, 0.00, 0.00, 0.00
177, -15088.48, 33274.59, -26713.82, -37188.41, -21076.82, 6365.55, -26712.66, -35331.51, 0.00, 0.00, 0.00
179, -15098.65, 33271.93, -26704.16, -37173.48, -21073.78, 6481.13, -26714.42, -35339.05, 0.00, 0.00, 0.00
181, -15103.23, 33275.51, -26718.67, -37201.48, -21087.15, 6432.36, -26729.31, -35328.70, 0.00, 0.00, 0.00
183, -15111.39, 33274.79, -26712.75, -37189.59, -21090.70, 6423.65, -26735.64, -35330.57, 0.00, 0.00, 0.00
185, -15112.73, 33278.64, -26737.69, -37216.17, -21108.79, 6474.32, -26760.16, -35330.13, 0.00, 0.00, 0.00
187, -15100.15, 33292.23, -26697.15, -37179.31, -21052.30, 6532.99, -26717.91, -35288.98, 0.00, 0.00, 0.00
189, -15125.74, 33273.50, -26744.02, -37225.64, -21092.04, 6517.01, -26766.88, -35332.38, 0.00, 0.00, 0.00
191, -15087.92, 33304.84, -26709.75, -37179.71, -21030.80, 6492.04, -26696.52, -35255.59, 0.00, 0.00, 0.00
193, -15098.49, 33307.74, -26730.14, -37198.09, -21045.66, 6577.20, -26724.13, -35288.17, 0.00, 0.00, 0.00
195, -15098.20, 33296.30, -26735.19, -37182.17, -21040.41, 6504.58, -26715.86, -35282.36, 0.00, 0.00, 0.00
197, -15126.56, 33283.29, -26772.11, -37219.77, -21065.96, 6518.28, -26765.41, -35323.45, -0.10, 1.01, 0.05
199, -15085.28, 33307.92, -26741.04, -37171.08, -21063.43, 6474.43, -26768.16, -35311.93, 0.00, 0.00, 0.00
201, -15080.92, 33322.29, -26748.09, -37173.05, -21072.80, 6606.57, -26786.89, -35330.71, 0.00, 0.00, 0.00
203, -15077.39, 33308.77, -26750.90, -37168.02, -21060.97, 6451.12, -26761.01, -35310.41, 0.00, 0.00, 0.00
205, -15096.17, 33313.02, -26760.60, -37169.86, -21074.05, 6617.41, -26785.01, -35334.78, 0.00, 0.00, 0.00
207, -15070.42, 33315.48, -26747.15, -37141.33, -21056.82, 6466.87, -26758.70, -35297.23, -0.08, 1.00, 0.05
209, -15098.63, 33304.93, -26763.89, -37166.84, -21067.84, 6662.14, -26766.15, -35324.96, 0.00, 0.00, 0.00
211, -15076.50, 33316.82, -26736.28, -37138.27, -21052.19, 6481.76, -26725.96, -35269.75, 0.00, 0.00, 0.00
213, -15140.78, 33274.77, -26784.23, -37181.03, -21056.95, 6696.07, -26730.41, -35294.12, 0.00, 0.00, 0.00
215, -15123.21, 33272.56, -26772.90, -37178.19, -21055.63, 6499.69, -26718.40, -35268.73, 0.00, 0.00, 0.00
217, -15161.59, 33249.43, -26796.86, -37187.09, -21050.11, 6679.77, -26705.77, -35281.78, -0.07, 1.00, 0.04
219, -15129.54, 33268.07, -26764.43, -37169.59, -21030.58, 6514.95, -26688.09, -35248.99, 0.00, 0.00, 0.00
221, -15141.70, 33271.55, -26774.48, -37160.54, -21072.17, 6675.93, -26709.04, -35285.67, 0.00, 0.00, 0.00
223, -15147.93, 33262.59, -26782.57, -37170.48, -21083.37, 6606.39, -26746.70, -35296.73, 0.00, 0.00, 0.00
225, -15161.90, 33242.81, -26774.13, -37160.24, -21067.77, 6768.02, -26731.59, -35310.55, 0.00, 0.00, 0.00
227, -15142.43, 33254.01, -26765.47, -37167.62, -21084.82, 6695.60, -26749.45, -35319.15, -0.04, 1.00, 0.07
229, -15142.77, 33248.73, -26747.95, -37141.96, -21069.92, 6755.14, -26729.02, -35301.38, 0.00, 0.00, 0.00
231, -15145.32, 33246.52, -26746.86, -37158.45, -21071.48, 6726.29, -26743.01, -35304.49, 0.00, 0.00, 0.00
233, -15165.14, 33208.59, -26762.03, -37171.71, -21074.05, 6758.70, -26737.69, -35313.54, 0.00, 0.00, 0.00
235, -15185.31, 33177.23, -26773.14, -37204.41, -21075.55, 6786.39, -26749.05, -35323.22, 0.00, 0.00, 0.00
237, -15166.51, 33173.09, -26746.41, -37172.61, -21046.42, 6788.96, -26711.54, -35284.82, -0.06, 0.95, 0.08
239, -15201.73, 33130.63, -26758.26, -37210.78, -21033.93, 6870.08, -26762.50, -35321.14, 0.00, 0.00, 0.00
241, -15192.03, 33101.64, -26724.66, -37182.62, -21003.13, 6866.08, -26736.42, -35305.74, 0.00, 0.00, 0.00
243, -15236.16, 33037.89, -26746.34, -37236.08, -21061.58, 6998.35, -26842.63, -35373.94, 0.00, 0.00, 0.00
245, -15196.53, 33029.93, -26683.87, -37191.89, -21023.96, 6999.09, -26775.85, -35309.81, 0.00, 0.00, 0.00
247, -15213.20, 32999.51, -26682.53, -37215.05, -21065.04, 7222.27, -26864.87, -35360.55, -0.09, 0.87, 0.10
249, -15175.38, 32986.61, -26620.95, -37161.83, -21029.55, 7150.61, -26845.58, -35324.50, 0.00, 0.00, 0.00
251, -15218.83, 32935.52, -26682.01, -37182.46, -21111.47, 7351.47, -26966.19, -35386.45, 0.00, 0.00, 0.00
253, -15196.10, 32895.29, -26667.80, -37142.38, -21110.53, 7205.40, -26998.69, -35360.28, 0.00, 0.00, 0.00
255, -15237.74, 32842.63, -26656.96, -37165.85, -21113.37, 7427.98, -27028.94, -35404.65, 0.00, 0.00, 0.00
1, -15208.06, 32835.67, -26620.39, -37144.73, -21099.64, 7264.27, -27012.08, -35361.75, -0.09, 0.81, 0.10
3, -15229.63, 32839.14, -26637.69, -37171.22, -21101.97, 7463.60, -27012.06, -35361.84, 0.00, 0.00, 0.00
5, -15215.12, 32877.87, -26621.35, -37162.28, -21050.67, 7336.83, -26933.96, -35277.29, 0.00, 0.00, 0.00
7, -15244.49, 32891.89, -26656.42, -37196.07, -21045.96, 7524.29, -26891.16, -35290.92, 0.00, 0.00, 0.00
9, -15211.05, 32930.51, -26652.71, -37192.88, -21043.85, 7304.42, -26852.63, -35247.20, 0.00, 0.00, 0.00
11, -15232.42, 32930.69, -26677.79, -37195.56, -20997.99, 7423.22, -26797.75, -35260.05, -0.06, 0.91, 0.15
13, -15205.13, 32941.08, -26685.68, -37192.68, -21016.58, 7250.93, -26784.52, -35217.34, 0.00, 0.00, 0.00
15, -15203.43, 32934.94, -26699.58, -37179.15, -21045.49, 7341.14, -26799.38, -35239.38, 0.00, 0.00, 0.00
17, -15179.49, 32942.13, -26694.78, -37181.32, -20975.32, 7245.00, -26825.31, -35243.09, 0.00, 0.00, 0.00
19, -15183.47, 32933.51, -26696.54, -37173.01, -20962.11, 7339.22, -26785.90, -35241.50, 0.00, 0.00, 0.00
21, -15186.24, 32930.18, -26711.34, -37193.95, -21003.73, 7300.03, -26861.59, -35236.05, -0.04, 0.95, 0.20
23, -15190.18, 32923.92, -26688.63, -37173.48, -20941.93, 7339.44, -26833.54, -35189.11, 0.00, 0.00, 0.00
25, -15190.22, 32928.77, -26701.84, -37197.75, -20961.60, 7363.49, -26866.77, -35191.93, 0.00, 0.00, 0.00
27, -15175.34, 32938.94, -26690.08, -37161.81, -20958.45, 7354.04, -26841.54, -35170.80, 0.00, 0.00, 0.00
29, -15198.56, 32924.27, -26727.30, -37192.56, -20958.16, 7407.93, -26894.22, -35218.28, 0.00, 0.00, 0.00
31, -15193.37, 32919.74, -26730.72, -37166.93, -20969.04, 7369.79, -26863.87, -35209.05, -0.06, 0.91, 0.21
33, -15219.84, 32904.54, -26777.03, -37195.40, -21014.19, 7484.06, -26883.80, -35239.22, 0.00, 0.00, 0.00
35, -15196.32, 32906.77, -26754.21, -37159.08, -20945.42, 7403.59, -26861.39, -35223.15, 0.00, 0.00, 0.00
37, -15192.21, 32923.02, -26772.79, -37165.34, -20968.44, 7519.73, -26853.25, -35234.77, 0.00, 0.00, 0.00
39, -15168.03, 32928.52, -26760.49, -37143.84, -20973.13, 7386.89, -26838.61, -35218.32, 0.00, 0.00, 0.00
41, -15198.36, 32913.59, -26783.04, -37172.87, -21000.45, 7484.79, -26858.97, -35245.59, -0.06, 0.92, 0.22
43, -15167.45, 32923.54, -26751.66, -37145.11, -20957.20, 7325.85, -26851.80, -35216.07, 0.00, 0.00, 0.00
45, -15181.33, 32930.46, -26766.30, -37154.23, -20956.77, 7527.53, -26843.80, -35226.32, 0.00, 0.00, 0.00
47, -15155.91, 32937.44, -26746.03, -37141.42, -20938.60, 7303.16, -26817.58, -35195.82, 0.00, 0.00, 0.00
49, -15183.00, 32926.38, -26766.37, -37148.96, -20937.71, 7481.60, -26814.00, -35210.52, 0.00, 0.00, 0.00
51, -15154.91, 32943.65, -26753.18, -37135.88, -20962.20, 7282.27, -26795.14, -35172.77, -0.05, 0.95, 0.22
53, -15197.55, 32906.66, -26778.60, -37171.11, -20936.97, 7466.73, -26835.17, -35226.84, 0.00, 0.00, 0.00
55, -15156.87, 32940.30, -26743.75, -37149.43, -20912.78, 7323.24, -26802.98, -35192.02, 0.00, 0.00, 0.00
57, -15174.80, 32927.49, -26756.67, -37157.94, -20892.78, 7490.49, -26792.39, -35205.52, 0.00, 0.00, 0.00
59, -15161.08, 32944.04, -26755.80, -37158.34, -20931.60, 7356.92, -26809.78, -35212.40, 0.00, 0.00, 0.00
61, -15166.80, 32944.91, -26761.27, -37151.91, -20964.08, 7496.75, -26810.71, -35227.82, -0.04, 0.97, 0.21
63, -15155.76, 32943.16, -26760.56, -37160.98, -20945.01, 7374.29, -26840.98, -35241.59, 0.00, 0.00, 0.00
65, -15130.63, 32970.79, -26726.38, -37120.41, -20920.94, 7493.31, -26799.41, -35207.28, 0.00, 0.00, 0.00
67, -15130.99, 32969.36, -26742.50, -37128.62, -20928.34, 7433.94, -26826.21, -35206.77, 0.00, 0.00, 0.00
69, -15150.64, 32939.50, -26763.29, -37130.74, -20925.72, 7473.57, -26807.09, -35209.72, 0.00, 0.00, 0.00
71, -15160.76, 32930.58, -26781.61, -37148.57, -20918.48, 7467.23, -26804.35, -35194.32, -0.03, 1.00, 0.20
73, -15162.86, 32912.03, -26777.21, -37129.53, -20891.71, 7438.64, -26763.80, -35163.18, 0.00, 0.00, 0.00
75, -15211.37, 32866.41, -26822.90, -37172.96, -20922.44, 7479.32, -26803.05, -35199.93, 0.00, 0.00, 0.00
77, -15228.71, 32830.82, -26833.13, -37167.78, -20925.14, 7381.95, -26794.44, -35198.18, 0.00, 0.00, 0.00
79, -15245.54, 32811.11, -26836.20, -37171.20, -20916.76, 7457.46, -26789.06, -35194.95, 0.00, 0.00, 0.00
81, -15254.30, 32778.21, -26820.10, -37150.79, -20919.56, 7350.24, -26790.71, -35190.34, -0.01, 0.97, 0.19
83, -15274.49, 32761.64, -26838.39, -37169.18, -20938.82, 7486.63, -26827.14, -35228.18, 0.00, 0.00, 0.00
85, -15262.33, 32754.11, -26830.61, -37155.46, -20947.41, 7381.02, -26834.07, -35225.77, 0.00, 0.00, 0.00
87, -15288.95, 32738.64, -26856.63, -37181.23, -20968.30, 7580.44, -26869.61, -35265.02, 0.00, 0.00, 0.00
89, -15292.53, 32709.72, -26857.25, -37181.45, -20982.05, 7445.34, -26893.53, -35265.06, 0.00, 0.00, 0.00
91, -15311.82, 32693.02, -26867.29, -37191.96, -20997.72, 7644.97, -26910.58, -35279.68, -0.00, 0.89, 0.17
93, -15304.66, 32665.35, -26847.10, -37178.71, -20967.70, 7451.42, -26888.88, -35247.94, 0.00, 0.00, 0.00
95, -15328.38, 32641.91, -26865.48, -37193.79, -20981.04, 7629.30, -26885.33, -35254.29, 0.00, 0.00, 0.00
97, -15322.95, 32624.38, -26845.70, -37185.95, -20956.39, 7454.84, -26861.59, -35229.34, 0.00, 0.00, 0.00
99, -15334.77, 32627.76, -26833.47, -37185.57, -20940.16, 7647.52, -26828.84, -35231.98, 0.00, 0.00, 0.00
101, -15319.82, 32624.70, -26809.11, -37191.34, -20948.46, 7458.06, -26841.83, -35220.47, -0.01, 0.93, 0.17
103, -15348.72, 32613.07, -26806.16, -37196.63, -20941.93, 7627.94, -26794.85, -35225.03, 0.00, 0.00, 0.00
105, -15317.92, 32642.67, -26768.31, -37177.90, -20919.51, 7478.47, -26755.55, -35189.36, 0.00, 0.00, 0.00
107, -15323.55, 32648.81, -26756.76, -37175.29, -20939.05, 7628.49, -26790.55, -35210.50, 0.00, 0.00, 0.00
109, -15337.32, 32641.14, -26762.37, -37207.65, -20975.41, 7493.67, -26830.79, -35235.54, 0.00, 0.00, 0.00
111, -15334.28, 32650.06, -26739.88, -37176.11, -20967.93, 7609.29, -26825.20, -35226.73, -0.02, 0.96, 0.19
113, -15303.43, 32683.81, -26713.26, -37163.82, -20959.03, 7500.71, -26831.01, -35213.94, 0.00, 0.00, 0.00
115, -15327.64, 32667.48, -26726.05, -37167.73, -20972.35, 7532.25, -26830.70, -35225.70, 0.00, 0.00, 0.00
117, -15309.71, 32693.47, -26703.54, -37163.39, -20954.80, 7494.85, -26845.14, -35217.65, 0.00, 0.00, 0.00
119, -15323.08, 32683.79, -26686.24, -37143.95, -20943.99, 7524.56, -26832.35, -35210.41, 0.00, 0.00, 0.00
121, -15331.51, 32679.68, -26679.53, -37157.85, -20934.35, 7544.09, -26823.90, -35185.85, -0.04, 0.98, 0.20
123, -15317.69, 32692.20, -26654.99, -37132.26, -20903.98, 7519.44, -26790.00, -35153.32, 0.00, 0.00, 0.00
125, -15322.41, 32701.63, -26663.35, -37158.01, -20895.48, 7564.43, -26784.03, -35166.33, 0.00, 0.00, 0.00
127, -15324.11, 32694.43, -26658.75, -37158.39, -20881.87, 7473.35, -26759.44, -35149.66, 0.00, 0.00, 0.00
129, -15341.75, 32695.04, -26677.70, -37188.23, -20895.10, 7560.21, -26730.88, -35159.65, 0.00, 0.00, 0.00
131, -15319.68, 32702.26, -26647.44, -37163.82, -20888.64, 7402.58, -26747.75, -35144.38, -0.05, 1.02, 0.23
133, -15312.49, 32719.62, -26627.88, -37174.75, -20924.76, 7554.93, -26787.29, -35166.80, 0.00, 0.00, 0.00
135, -15281.24, 32737.41, -26579.82, -37138.92, -20923.85, 7426.32, -26779.76, -35150.44, 0.00, 0.00, 0.00
137, -15281.71, 32752.99, -26575.91, -37143.99, -20943.74, 7625.16, -26818.65, -35168.59, 0.00, 0.00, 0.00
139, -15229.70, 32787.44, -26529.08, -37102.71, -20924.41, 7463.00, -26804.95, -35134.26, 0.00, 0.00, 0.00
141, -15272.32, 32745.17, -26559.71, -37147.08, -20939.65, 7641.90, -26851.31, -35188.62, -0.06, 0.99, 0.25
143, -15263.76, 32719.35, -26556.46, -37148.35, -20941.33, 7456.16, -26865.10, -35184.33, 0.00, 0.00, 0.00
145, -15295.50, 32696.02, -26588.03, -37169.05, -20951.27, 7655.94, -26871.85, -35208.29, 0.00, 0.00, 0.00
147, -15265.82, 32691.73, -26574.37, -37155.55, -20927.22, 7501.25, -26862.68, -35186.23, 0.00, 0.00, 0.00
149, -15280.23, 32664.23, -26600.38, -37166.30, -20930.71, 7659.90, -26864.40, -35221.18, 0.00, 0.00, 0.00
151, -15254.86, 32664.59, -26600.97, -37163.11, -20922.93, 7491.10, -26851.60, -35197.27, -0.06, 0.94, 0.26
153, -15257.77, 32664.41, -26622.09, -37161.65, -20931.02, 7633.12, -26838.45, -35209.67, 0.00, 0.00, 0.00
155, -15229.25, 32673.80, -26618.00, -37156.46, -20935.74, 7482.54, -26850.70, -35205.02, 0.00, 0.00, 0.00
157, -15237.68, 32663.70, -26634.16, -37156.31, -20955.70, 7597.22, -26852.38, -35222.01, 0.00, 0.00, 0.00
159, -15212.91, 32682.92, -26621.69, -37145.71, -20941.33, 7489.91, -26850.50, -35201.67, 0.00, 0.00, 0.00
161, -15210.38, 32683.17, -26620.59, -37125.93, -20918.26, 7593.27, -26805.04, -35197.94, -0.04, 0.95, 0.24
163, -15203.16, 32694.74, -26632.86, -37131.92, -20922.82, 7565.60, -26816.93, -35189.40, 0.00, 0.00, 0.00
165, -15217.27, 32672.04, -26647.32, -37123.52, -20920.32, 7609.49, -26811.34, -35195.30, 0.00, 0.00, 0.00
167, -15220.75, 32672.68, -26665.21, -37142.38, -20928.76, 7594.97, -26829.60, -35198.05, 0.00, 0.00, 0.00
169, -15229.90, 32655.88, -26666.26, -37127.45, -20907.44, 7583.25, -26794.38, -35176.32, 0.00, 0.00, 0.00
171, -15231.80, 32654.18, -26679.22, -37150.61, -20905.47, 7609.92, -26809.15, -35185.24, -0.04, 0.95, 0.22
173, -15213.25, 32659.88, -26653.43, -37120.21, -20873.58, 7563.74, -26760.56, -35150.22, 0.00, 0.00, 0.00
175, -15227.35, 32654.53, -26685.57, -37152.75, -20910.62, 7671.14, -26805.80, -35183.03, 0.00, 0.00, 0.00
177, -15198.13, 32666.58, -26666.97, -37132.01, -20900.36, 7586.87, -26800.21, -35187.48, 0.00, 0.00, 0.00
179, -15210.74, 32665.73, -26692.54, -37163.77, -20938.11, 7737.21, -26857.25, -35235.60, 0.00, 0.00, 0.00
181, -15181.24, 32672.73, -26653.36, -37136.17, -20899.04, 7624.47, -26791.11, -35209.20, -0.04, 0.92, 0.20
183, -15201.47, 32669.76, -26670.70, -37158.63, -20906.05, 7797.09, -26811.01, -35237.79, 0.00, 0.00, 0.00
185, -15198.29, 32652.72, -26669.83, -37157.38, -20939.18, 7597.16, -26867.15, -35252.32, 0.00, 0.00, 0.00
187, -15217.07, 32644.99, -26678.50, -37165.56, -20940.92, 7787.55, -26857.95, -35256.63, 0.00, 0.00, 0.00
189, -15195.54, 32643.36, -26650.92, -37145.98, -20906.35, 7612.78, -26810.58, -35213.54, 0.00, 0.00, 0.00
191, -15232.80, 32620.96, -26685.17, -37172.05, -20926.48, 7800.00, -26856.98, -35253.17, -0.05, 0.91, 0.18
193, -15209.87, 32625.59, -26658.23, -37147.08, -20899.93, 7611.35, -26820.06, -35206.81, 0.00, 0.00, 0.00
195, -15255.83, 32589.45, -26703.65, -37187.58, -20946.85, 7783.19, -26874.15, -35256.68, 0.00, 0.00, 0.00
197, -15233.99, 32596.75, -26672.89, -37166.05, -20913.34, 7582.81, -26823.30, -35204.27, 0.00, 0.00, 0.00
199, -15265.70, 32570.38, -26689.79, -37173.45, -20917.07, 7773.09, -26821.02, -35233.88, 0.00, 0.00, 0.00
201, -15228.38, 32589.47, -26665.21, -37162.93, -20929.37, 7604.42, -26851.02, -35227.29, -0.05, 0.91, 0.15
203, -15234.79, 32587.77, -26659.39, -37152.33, -20920.43, 7725.95, -26806.20, -35230.64, 0.00, 0.00, 0.00
205, -15237.34, 32576.84, -26669.86, -37172.16, -20950.63, 7573.08, -26869.95, -35257.55, 0.00, 0.00, 0.00
207, -15220.44, 32596.64, -26659.97, -37140.91, -20923.82, 7650.58, -26840.94, -35255.43, 0.00, 0.00, 0.00
209, -15226.37, 32600.60, -26676.87, -37158.14, -20940.72, 7579.79, -26851.33, -35266.52, 0.00, 0.00, 0.00
212, -15255.22, 32579.59, -26715.43, -37169.81, -20958.20, 7703.77, -26885.73, -35297.05, 0.00, 0.00, 0.00
214, -15222.52, 32593.58, -26680.63, -37131.84, -20907.98, 7495.63, -26798.53, -35226.10, 0.00, 0.00, 0.00
216, -15285.49, 32556.32, -26733.78, -37166.50, -20939.16, 7690.74, -26821.47, -35265.38, 0.00, 0.00, 0.00
218, -15245.43, 32580.68, -26704.34, -37129.96, -20899.89, 7492.04, -26788.97, -35206.50, 0.00, 0.00, 0.00
220, -15272.25, 32568.35, -26738.18, -37136.62, -20915.11, 7673.20, -26811.19, -35239.34, 0.00, 0.00, 0.00
222, -15223.53, 32600.06, -26704.46, -37098.46, -20887.91, 7491.01, -26789.88, -35182.09, 0.00, 0.00, 0.00
224, -15260.32, 32573.64, -26748.11, -37125.62, -20916.96, 7692.13, -26805.46, -35222.75, 0.00, 0.00, 0.00
226, -15230.86, 32596.80, -26720.30, -37112.63, -20907.08, 7513.45, -26793.46, -35191.46, 0.00, 0.00, 0.00
228, -15238.17, 32593.87, -26737.76, -37119.34, -20932.65, 7649.08, -26816.64, -35217.50, 0.00, 0.00, 0.00
230, -15217.98, 32614.23, -26717.55, -37108.30, -20908.56, 7504.13, -26797.37, -35199.57, 0.00, 0.00, 0.00
232, -15220.33, 32617.86, -26730.41, -37103.16, -20918.26, 7574.98, -26813.31, -35225.36, 0.00, 0.00, 0.00
234, -15202.52, 32633.01, -26733.45, -37113.24, -20921.32, 7530.93, -26826.36, -35223.15, 0.00, 0.00, 0.00
236, -15218.81, 32615.84, -26747.30, -37113.75, -20915.40, 7600.29, -26815.32, -35227.55, 0.00, 0.00, 0.00
238, -15217.18, 32622.39, -26759.78, -37135.39, -20927.85, 7635.91, -26831.53, -35231.09, 0.00, 0.00, 0.00
240, -15214.36, 32615.42, -26745.65, -37115.52, -20890.50, 7628.18, -26791.22, -35210.55, 0.00, 0.00, 0.00
242, -15217.56, 32618.03, -26754.95, -37131.77, -20894.90, 7681.65, -26800.17, -35218.26, 0.00, 0.00, 0.00
244, -15210.29, 32612.92, -26735.68, -37104.74, -20863.32, 7652.61, -26758.14, -35192.35, 0.00, 0.00, 0.00
246, -15218.68, 32608.91, -26759.08, -37139.70, -20900.38, 7781.27, -26805.46, -35220.36, 0.00, 0.00, 0.00
248, -15167.16, 32642.22, -26707.12, -37083.58, -20852.43, 7655.36, -26743.10, -35168.82, 0.00, 0.00, 0.00
250, -15176.07, 32640.23, -26718.56, -37102.82, -20878.36, 7774.63, -26775.42, -35194.25, 0.00, 0.00, 0.00
252, -15121.56, 32665.13, -26654.63, -37047.72, -20822.57, 7582.29, -26713.46, -35134.08, 0.00, 0.00, 0.00
254, -15120.17, 32678.00, -26652.24, -37050.41, -20827.22, 7680.53, -26724.84, -35148.72, 0.00, 0.00, 0.00
0, -15064.90, 32700.06, -26601.46, -37000.34, -20782.12, 7381.53, -26675.71, -35097.25, 0.00, 0.00, 0.00
2, -15065.61, 32719.87, -26604.14, -36999.38, -20769.22, 7525.30, -26672.25, -35105.49, 0.00, 0.00, 0.00
4, -15027.39, 32738.22, -26564.22, -36966.30, -20735.67, 7321.96, -26635.92, -35062.62, 0.00, 0.00, 0.00
6, -15047.73, 32744.48, -26580.56, -36984.02, -20740.76, 7541.88, -26641.51, -35085.20, 0.00, 0.00, 0.00
8, -15015.77, 32767.21, -26539.81, -36958.27, -20704.78, 7346.12, -26610.80, -35045.84, 0.00, 0.00, 0.00
10, -15064.34, 32747.43, -26578.99, -36988.98, -20724.18, 7603.97, -26633.31, -35095.43, 0.00, 0.00, 0.00
12, -15039.26, 32762.74, -26568.04, -36987.38, -20716.83, 7466.89, -26623.41, -35080.88, 0.00, 0.00, 0.00
14, -15090.33, 32746.29, -26617.04, -37017.21, -20766.54, 7765.47, -26666.35, -35129.95, 0.00, 0.00, 0.00
16, -15072.56, 32756.32, -26603.31, -37016.45, -20759.99, 7691.88, -26667.78, -35113.25, 0.00, 0.00, 0.00
18, -15132.94, 32724.70, -26658.10, -37061.23, -20817.70, 7944.37, -26725.20, -35183.63, 0.00, 0.00, 0.00
20, -15147.31, 32708.20, -26666.59, -37085.23, -20842.22, 7863.57, -26757.54, -35200.69, 0.00, 0.00, 0.00
22, -15178.00, 32694.99, -26684.79, -37094.98, -20857.06, 8058.16, -26772.05, -35236.21, 0.00, 0.00, 0.00
24, -15176.59, 32693.83, -26688.45, -37123.05, -20879.08, 7991.13, -26800.72, -35247.18, 0.00, 0.00, 0.00
26, -15199.77, 32680.89, -26711.34, -37133.87, -20891.91, 8058.94, -26817.13, -35279.41, 0.00, 0.00, 0.00
28, -15219.21, 32663.68, -26737.78, -37173.77, -20929.66, 7985.36, -26864.18, -35305.12, 0.00, 0.00, 0.00
30, -15215.23, 32658.47, -26736.57, -37165.59, -20923.71, 7996.69, -26847.89, -35308.74, 0.00, 0.00, 0.00
32, -15224.58, 32650.94, -26754.41, -37191.13, -20934.49, 8011.83, -26863.31, -35320.92, 0.00, 0.00, 0.00
34, -15216.33, 32644.54, -26747.50, -37173.97, -20910.15, 7944.08, -26837.89, -35313.18, 0.00, 0.00, 0.00
36, -15209.15, 32652.12, -26754.32, -37182.95, -20907.78, 7924.56, -26845.38, -35311.66, 0.00, 0.00, 0.00
38, -15224.00, 32624.45, -26759.82, -37175.35, -20908.49, 7769.69, -26833.98, -35303.37, 0.00, 0.00, 0.00
40, -15219.68, 32631.36, -26761.54, -37177.19, -20932.01, 7867.57, -26845.99, -35294.25, 0.00, 0.00, 0.00
42, -15204.24, 32625.79, -26742.32, -37152.93, -20930.62, 7732.79, -26833.65, -35269.73, 0.00, 0.00, 0.00
44, -15202.81, 32645.71, -26733.91, -37156.89, -20932.01, 7886.83, -26846.48, -35281.20, 0.00, 0.00, 0.00
46, -15175.96, 32650.49, -26693.99, -37131.59, -20910.17, 7660.23, -26826.16, -35254.45, 0.00, 0.00, 0.00
48, -15200.01, 32636.76, -26714.87, -37156.55, -20937.91, 7776.15, -26855.58, -35294.45, 0.00, 0.00, 0.00
50, -15125.76, 32681.02, -26641.56, -37088.23, -20866.96, 7509.81, -26781.70, -35214.61, 0.00, 0.00, 0.00
52, -15137.65, 32685.76, -26645.65, -37099.00, -20866.96, 7685.71, -26787.49, -35238.38, 0.00, 0.00, 0.00
54, -15096.46, 32703.82, -26602.44, -37059.68, -20828.40, 7423.28, -26745.22, -35189.80, 0.00, 0.00, 0.00
56, -15112.80, 32700.56, -26622.38, -37067.26, -20821.88, 7655.34, -26737.51, -35200.96, 0.00, 0.00, 0.00
58, -15081.48, 32706.21, -26598.82, -37049.56, -20795.71, 7472.19, -26710.49, -35155.40, 0.00, 0.00, 0.00
60, -15112.37, 32699.06, -26622.76, -37058.68, -20784.80, 7736.99, -26703.05, -35169.51, 0.00, 0.00, 0.00
62, -15079.87, 32713.56, -26590.08, -37034.52, -20764.57, 7557.95, -26681.63, -35127.57, 0.00, 0.00, 0.00
64, -15108.59, 32704.20, -26611.34, -37037.75, -20790.41, 7788.60, -26693.99, -35144.07, 0.00, 0.00, 0.00
66, -15091.99, 32707.80, -26602.40, -37047.72, -20811.51, 7645.37, -26719.74, -35135.33, 0.00, 0.00, 0.00
68, -15107.43, 32699.46, -26603.76, -37050.27, -20820.40, 7822.64, -26727.25, -35161.91, 0.00, 0.00, 0.00
70, -15091.94, 32704.13, -26588.34, -37055.82, -20823.71, 7718.64, -26737.85, -35171.05, 0.00, 0.00, 0.00
72, -15109.78, 32697.40, -26598.42, -37062.45, -20832.88, 7830.80, -26744.46, -35207.66, 0.00, 0.00, 0.00
74, -15112.95, 32694.70, -26600.68, -37084.14, -20843.36, 7796.62, -26757.14, -35209.88, 0.00, 0.00, 0.00
76, -15149.14, 32664.82, -26624.48, -37094.08, -20853.51, 7881.47, -26759.93, -35234.42, 0.00, 0.00, 0.00
78, -15172.79, 32650.94, -26652.02, -37131.54, -20876.51, 7964.60, -26786.31, -35248.27, 0.00, 0.00, 0.00
80, -15212.19, 32617.38, -26680.18, -37146.90, -20880.11, 8053.18, -26778.30, -35263.92, 0.00, 0.00, 0.00
82, -15265.24, 32582.05, -26742.05, -37214.82, -20929.64, 8197.64, -26837.89, -35309.12, 0.00, 0.00, 0.00
84, -15271.94, 32550.51, -26735.86, -37202.51, -20925.90, 8146.74, -26822.72, -35286.95, 0.00, 0.00, 0.00
86, -15274.62, 32552.81, -26742.56, -37208.70, -20933.95, 8203.38, -26833.56, -35284.11, 0.00, 0.00, 0.00
88, -15277.06, 32522.08, -26735.46, -37196.99, -20920.92, 8004.43, -26804.55, -35256.07, 0.00, 0.00, 0.00
90, -15272.08, 32533.03, -26731.08, -37198.42, -20938.26, 8076.69, -26825.13, -35260.43, 0.00, 0.00, 0.00
92, -15232.98, 32537.93, -26685.10, -37148.91, -20917.14, 7854.94, -26789.06, -35214.23, 0.00, 0.00, 0.00
94, -15227.17, 32541.70, -26682.06, -37149.25, -20929.55, 7986.57, -26811.05, -35235.96, 0.00, 0.00, 0.00
97, -15213.36, 32532.49, -26656.20, -37121.73, -20903.89, 7945.11, -26794.64, -35236.18, 0.00, 0.00, 0.00
99, -15202.14, 32539.91, -26648.08, -37126.07, -20889.74, 7893.61, -26791.76, -35234.71, 0.00, 0.00, 0.00
101, -15199.57, 32531.49, -26640.15, -37109.75, -20864.73, 7872.82, -26767.53, -35230.64, 0.00, 0.00, 0.00
103, -15238.26, 32500.24, -26681.81, -37159.06, -20909.41, 7856.21, -26805.57, -35261.26, 0.00, 0.00, 0.00
105, -15226.97, 32495.93, -26662.32, -37127.41, -20873.89, 7813.99, -26762.21, -35230.64, 0.00, 0.00, 0.00
107, -15223.57, 32505.72, -26667.51, -37134.32, -20882.72, 7876.37, -26768.25, -35221.90, 0.00, 0.00, 0.00
109, -15239.46, 32468.81, -26668.42, -37120.23, -20866.52, 7764.17, -26743.50, -35197.09, 0.00, 0.00, 0.00
111, -15242.57, 32468.01, -26689.41, -37137.36, -20883.84, 7861.58, -26762.26, -35209.23, 0.00, 0.00, 0.00
113, -15226.54, 32458.55, -26676.78, -37117.95, -20870.18, 7768.50, -26756.20, -35179.77, 0.00, 0.00, 0.00
115, -15263.29, 32436.25, -26704.54, -37141.80, -20908.36, 7939.70, -26803.23, -35208.29, 0.00, 0.00, 0.00
117, -15219.39, 32454.64, -26652.76, -37095.42, -20873.82, 7752.08, -26765.47, -35160.01, 0.00, 0.00, 0.00
119, -15245.14, 32434.68, -26675.55, -37129.18, -20901.65, 7922.13, -26813.31, -35208.82, 0.00, 0.00, 0.00
121, -15207.86, 32445.03, -26628.86, -37097.05, -20866.47, 7743.00, -26775.89, -35167.43, 0.00, 0.00, 0.00
123, -15243.22, 32420.00, -26655.28, -37129.04, -20891.37, 7952.50, -26803.34, -35210.95, 0.00, 0.00, 0.00
125, -15214.52, 32419.04, -26622.98, -37114.96, -20871.61, 7729.26, -26796.86, -35188.84, 0.00, 0.00, 0.00
127, -15227.62, 32413.27, -26621.13, -37112.75, -20865.91, 7932.32, -26788.50, -35200.62, 0.00, 0.00, 0.00
129, -15215.82, 32406.14, -26593.86, -37100.70, -20854.69, 7762.89, -26771.60, -35168.93, 0.00, 0.00, 0.00
131, -15237.76, 32398.90, -26599.40, -37099.22, -20853.51, 7961.11, -26762.05, -35173.96, 0.00, 0.00, 0.00
133, -15235.95, 32382.40, -26589.97, -37098.87, -20852.72, 7785.89, -26781.88, -35150.53, 0.00, 0.00, 0.00
135, -15238.23, 32383.05, -26593.57, -37088.63, -20856.75, 7943.45, -26780.94, -35154.46, 0.00, 0.00, 0.00
137, -15258.91, 32349.30, -26617.93, -37118.96, -20878.38, 7834.76, -26795.54, -35159.54, 0.00, 0.00, 0.00
139, -15249.01, 32355.89, -26608.28, -37093.99, -20872.79, 7972.82, -26797.44, -35159.00, 0.00, 0.00, 0.00
141, -15247.80, 32341.54, -26606.55, -37107.45, -20897.45, 7880.73, -26838.70, -35158.49, 0.00, 0.00, 0.00
143, -15240.69, 32340.11, -26582.44, -37078.97, -20863.86, 7957.29, -26787.83, -35145.17, 0.00, 0.00, 0.00
145, -15243.93, 32329.21, -26583.02, -37097.84, -20871.19, 7916.97, -26812.39, -35167.77, 0.00, 0.00, 0.00
147, -15267.31, 32287.70, -26592.43, -37107.36, -20885.45, 7911.35, -26823.46, -35197.71, 0.00, 0.00, 0.00
149, -15246.59, 32301.44, -26576.22, -37100.32, -20901.83, 7913.55, -26820.46, -35184.24, 0.00, 0.00, 0.00
151, -15251.51, 32278.98, -26570.99, -37088.79, -20842.26, 7884.87, -26799.27, -35184.91, 0.00, 0.00, 0.00
153, -15262.35, 32269.28, -26589.01, -37111.02, -20864.08, 7934.47, -26816.77, -35198.95, 0.00, 0.00, 0.00
155, -15247.71, 32265.48, -26562.97, -37074.03, -20816.56, 7828.83, -26763.35, -35155.31, 0.00, 0.00, 0.00
157, -15262.04, 32254.08, -26592.74, -37093.75, -20847.79, 7922.67, -26800.95, -35174.80, 0.00, 0.00, 0.00
159, -15250.15, 32244.85, -26604.43, -37075.48, -20854.71, 7786.41, -26791.92, -35158.87, 0.00, 0.00, 0.00
161, -15265.15, 32236.20, -26649.45, -37089.79, -20880.73, 7941.55, -26821.87, -35186.63, 0.00, 0.00, 0.00
163, -15237.90, 32239.84, -26640.10, -37051.64, -20873.94, 7810.88, -26789.03, -35159.79, 0.00, 0.00, 0.00
165, -15253.25, 32240.51, -26669.56, -37060.84, -20891.68, 8011.02, -26801.95, -35185.09, 0.00, 0.00, 0.00
167, -15238.73, 32236.24, -26662.43, -37040.59, -20879.57, 7817.16, -26778.48, -35171.25, 0.00, 0.00, 0.00
169, -15263.65, 32220.89, -26696.03, -37058.68, -20903.66, 7979.75, -26809.26, -35216.22, 0.00, 0.00, 0.00
171, -15228.15, 32234.75, -26659.97, -37029.22, -20861.58, 7786.07, -26763.38, -35176.21, 0.00, 0.00, 0.00
173, -15245.30, 32235.86, -26673.05, -37033.80, -20857.17, 7985.47, -26762.95, -35201.83, 0.00, 0.00, 0.00
175, -15238.68, 32224.26, -26672.11, -37044.24, -20850.78, 7797.05, -26757.96, -35190.85, 0.00, 0.00, 0.00
177, -15283.92, 32191.65, -26705.66, -37069.50, -20868.86, 8007.20, -26775.29, -35222.08, 0.00, 0.00, 0.00
179, -15249.68, 32214.38, -26676.72, -37044.80, -20847.94, 7861.67, -26749.49, -35172.82, 0.00, 0.00, 0.00
181, -15249.86, 32222.79, -26675.87, -37032.28, -20848.05, 8037.04, -26746.99, -35164.95, 0.00, 0.00, 0.00
183, -15236.98, 32230.90, -26670.26, -37040.15, -20850.91, 7905.10, -26747.73, -35141.48, 0.00, 0.00, 0.00
185, -15254.53, 32227.55, -26684.83, -37039.10, -20858.74, 8066.27, -26743.53, -35148.92, 0.00, 0.00, 0.00
187, -15240.22, 32237.88, -26692.99, -37065.11, -20879.93, 7960.98, -26763.91, -35151.22, 0.00, 0.00, 0.00
189, -15268.16, 32209.89, -26714.07, -37087.89, -20899.37, 8044.82, -26782.37, -35186.81, 0.00, 0.00, 0.00
191, -15230.32, 32243.64, -26687.94, -37079.31, -20883.35, 7952.53, -26783.56, -35177.87, 0.00, 0.00, 0.00
193, -15216.49, 32248.96, -26675.35, -37060.46, -20865.67, 7984.71, -26761.16, -35180.91, 0.00, 0.00, 0.00
195, -15219.19, 32252.70, -26676.34, -37077.16, -20871.54, 7986.97, -26781.88, -35195.10, 0.00, 0.00, 0.00
197, -15207.34, 32254.95, -26671.58, -37068.38, -20868.24, 7967.70, -26771.04, -35198.43, 0.00, 0.00, 0.00
199, -15224.35, 32249.61, -26685.34, -37087.06, -20876.57, 8014.64, -26789.21, -35211.73, 0.00, 0.00, 0.00
201, -15193.84, 32263.04, -26649.74, -37048.04, -20829.72, 7927.63, -26733.60, -35166.42, 0.00, 0.00, 0.00
203, -15206.43, 32267.42, -26669.07, -37071.51, -20843.29, 8008.61, -26747.33, -35175.81, 0.00, 0.00, 0.00
205, -15197.15, 32272.88, -26651.62, -37043.19, -20810.95, 7920.68, -26702.29, -35131.71, 0.00, 0.00, 0.00
207, -15241.63, 32245.54, -26703.43, -37092.47, -20853.82, 8062.16, -26749.79, -35171.74, 0.00, 0.00, 0.00
209, -15210.74, 32259.22, -26669.77, -37060.75, -20812.49, 7929.75, -26704.95, -35128.38, 0.00, 0.00, 0.00
211, -15227.10, 32260.72, -26695.13, -37087.27, -20838.82, 8119.90, -26727.81, -35153.05, 0.00, 0.00, 0.00
213, -15184.57, 32280.19, -26662.63, -37055.70, -20827.49, 7974.07, -26715.97, -35117.81, 0.00, 0.00, 0.00
215, -15203.59, 32267.31, -26697.35, -37095.47, -20884.49, 8138.72, -26782.57, -35173.35, 0.00, 0.00, 0.00
217, -15175.11, 32286.02, -26665.83, -37072.13, -20855.72, 7953.89, -26744.04, -35151.45, 0.00, 0.00, 0.00
219, -15172.77, 32299.74, -26660.09, -37065.94, -20852.43, 8179.75, -26750.48, -35165.53, 0.00, 0.00, 0.00
221, -15153.79, 32304.19, -26628.97, -37046.94, -20834.64, 8007.69, -26738.56, -35145.17, 0.00, 0.00, 0.00
223, -15185.35, 32290.31, -26650.19, -37068.71, -20846.06, 8188.81, -26751.64, -35181.38, 0.00, 0.00, 0.00
225, -15154.84, 32311.10, -26620.84, -37048.55, -20830.55, 8006.24, -26740.24, -35144.74, 0.00, 0.00, 0.00
227, -15171.92, 32305.29, -26633.11, -37052.84, -20816.83, 8211.54, -26726.07, -35154.09, 0.00, 0.00, 0.00
229, -15156.43, 32312.11, -26620.30, -37047.05, -20800.73, 8090.01, -26724.01, -35124.69, 0.00, 0.00, 0.00
231, -15163.24, 32316.29, -26618.71, -37032.30, -20785.22, 8225.87, -26690.55, -35120.00, 0.00, 0.00, 0.00
233, -15164.85, 32311.77, -26627.34, -37047.72, -20794.41, 8093.28, -26706.76, -35125.23, 0.00, 0.00, 0.00
235, -15163.56, 32317.43, -26630.20, -37032.73, -20796.67, 8182.44, -26706.69, -35124.25, 0.00, 0.00, 0.00
237, -15165.66, 32316.42, -26644.82, -37055.93, -20813.99, 8122.49, -26720.55, -35131.18, 0.00, 0.00, 0.00
239, -15179.47, 32307.70, -26653.96, -37055.44, -20822.48, 8175.02, -26720.84, -35143.18, 0.00, 0.00, 0.00
241, -15160.74, 32324.60, -26647.77, -37069.61, -20836.70, 8148.98, -26741.27, -35152.07, 0.00, 0.00, 0.00
243, -15158.26, 32321.31, -26637.56, -37052.55, -20837.97, 8125.62, -26750.68, -35158.82, 0.00, 0.00, 0.00
245, -15147.37, 32339.04, -26633.31, -37061.29, -20849.42, 8150.45, -26755.69, -35167.38, 0.00, 0.00, 0.00
247, -15126.14, 32352.38, -26597.70, -37023.03, -20811.08, 8147.81, -26722.43, -35143.40, 0.00, 0.00, 0.00
249, -15159.76, 32331.86, -26628.57, -37066.68, -20855.67, 8247.03, -26786.82, -35183.77, 0.00, 0.00, 0.00
251, -15140.22, 32338.53, -26597.66, -37036.32, -20815.08, 8183.51, -26734.34, -35145.90, 0.00, 0.00, 0.00
253, -15155.53, 32339.49, -26608.28, -37052.11, -20822.24, 8332.42, -26743.62, -35157.04, 0.00, 0.00, 0.00
255, -15131.73, 32349.54, -26581.12, -37022.58, -20804.67, 8212.77, -26722.43, -35127.15, 0.00, 0.00, 0.00
1, -15157.23, 32340.69, -26603.65, -37052.57, -20809.63, 8353.54, -26738.52, -35155.09, 0.00, 0.00, 0.00
3, -15152.69, 32332.63, -26604.79, -37051.84, -20807.73, 8163.13, -26728.01, -35131.75, 0.00, 0.00, 0.00
5, -15181.17, 32326.05, -26630.11, -37078.88, -20811.64, 8304.72, -26738.94, -35158.38, 0.00, 0.00, 0.00
7, -15137.47, 32353.79, -26586.59, -37043.41, -20782.16, 8099.36, -26704.54, -35113.41, 0.00, 0.00, 0.00
9, -15180.77, 32328.09, -26630.27, -37088.09, -20843.34, 8302.15, -26773.05, -35183.93, 0.00, 0.00, 0.00
11, -15145.70, 32349.48, -26599.92, -37070.03, -20832.25, 8091.82, -26758.59, -35155.65, 0.00, 0.00, 0.00
13, -15156.70, 32357.86, -26610.76, -37072.29, -20852.70, 8291.78, -26787.96, -35184.24, 0.00, 0.00, 0.00
15, -15113.78, 32388.48, -26573.14, -37042.45, -20834.66, 8086.79, -26763.89, -35141.61, 0.00, 0.00, 0.00
17, -15133.54, 32385.24, -26578.66, -37047.97, -20811.02, 8245.92, -26714.16, -35146.84, 0.00, 0.00, 0.00
19, -15110.02, 32398.56, -26558.36, -37041.80, -20799.88, 8106.60, -26723.95, -35120.73, 0.00, 0.00, 0.00
21, -15115.97, 32400.73, -26568.09, -37039.01, -20801.90, 8282.10, -26729.15, -35134.66, 0.00, 0.00, 0.00
23, -15116.28, 32393.38, -26574.44, -37058.54, -20806.88, 8150.29, -26749.16, -35132.74, 0.00, 0.00, 0.00
25, -15138.88, 32381.64, -26585.43, -37061.27, -20796.64, 8264.92, -26733.89, -35140.61, 0.00, 0.00, 0.00
27, -15127.17, 32394.52, -26589.43, -37072.02, -20803.95, 8187.33, -26747.26, -35139.60, 0.00, 0.00, 0.00
29, -15156.81, 32376.19, -26616.43, -37083.29, -20826.68, 8217.80, -26760.33, -35160.50, 0.00, 0.00, 0.00
31, -15128.64, 32405.60, -26598.89, -37085.28, -20815.51, 8121.60, -26729.53, -35136.38, 0.00, 0.00, 0.00
33, -15119.77, 32410.47, -26586.51, -37067.26, -20811.22, 8137.78, -26724.42, -35140.00, 0.00, 0.00, 0.00
35, -15086.06, 32453.97, -26568.33, -37060.82, -20814.03, 8119.11, -26742.95, -35139.76, 0.00, 0.00, 0.00
37, -15079.98, 32459.78, -26554.52, -37033.80, -20810.10, 8083.69, -26742.05, -35134.73, 0.00, 0.00, 0.00
39, -15086.80, 32468.34, -26558.14, -37042.38, -20812.16, 8145.71, -26745.29, -35137.43, 0.00, 0.00, 0.00
41, -15072.92, 32474.40, -26542.34, -37019.85, -20792.87, 8072.09, -26725.64, -35120.63, 0.00, 0.00, 0.00
43, -15082.31, 32477.15, -26548.64, -37035.86, -20795.03, 8136.06, -26735.59, -35132.23, 0.00, 0.00, 0.00
45, -15086.69, 32464.03, -26546.99, -37027.52, -20787.52, 8015.16, -26716.95, -35118.70, 0.00, 0.00, 0.00
47, -15098.76, 32470.04, -26556.46, -37036.84, -20786.36, 8140.06, -26723.12, -35127.26, 0.00, 0.00, 0.00
49, -15080.97, 32469.98, -26542.36, -37020.99, -20759.54, 8006.46, -26694.17, -35088.59, 0.00, 0.00, 0.00
51, -15119.77, 32453.90, -26590.64, -37057.27, -20791.75, 8209.26, -26733.78, -35119.15, 0.00, 0.00, 0.00
53, -15081.68, 32475.14, -26558.39, -37022.22, -20761.51, 8037.06, -26696.68, -35072.46, 0.00, 0.00, 0.00
55, -15108.10, 32464.39, -26585.61, -37049.36, -20777.15, 8280.02, -26708.34, -35105.11, 0.00, 0.00, 0.00
57, -15084.45, 32471.90, -26575.24, -37047.68, -20777.67, 8057.54, -26705.91, -35095.34, 0.00, 0.00, 0.00
59, -15102.38, 32475.25, -26591.09, -37055.77, -20792.42, 8178.57, -26724.15, -35132.47, 0.00, 0.00, 0.00
61, -15077.73, 32486.16, -26571.02, -37045.29, -20793.11, 7947.07, -26731.21, -35121.77, 0.00, 0.00, 0.00
63, -15102.69, 32481.17, -26593.57, -37057.83, -20814.48, 8113.97, -26748.38, -35159.54, 0.00, 0.00, 0.00
65, -15067.96, 32511.46, -26562.28, -37036.37, -20796.15, 7944.79, -26731.95, -35121.88, 0.00, 0.00, 0.00
67, -15078.75, 32515.55, -26562.01, -37025.93, -20783.68, 8114.20, -26722.34, -35125.12, 0.00, 0.00, 0.00
69, -15044.29, 32545.93, -26526.36, -37001.79, -20766.76, 7976.29, -26701.59, -35086.94, 0.00, 0.00, 0.00
71, -15081.17, 32523.33, -26542.67, -37012.66, -20770.16, 8152.13, -26709.73, -35112.00, 0.00, 0.00, 0.00
73, -15083.78, 32513.09, -26542.40, -37038.65, -20782.23, 8039.52, -26725.02, -35100.08, 0.00, 0.00, 0.00
75, -15097.51, 32503.19, -26539.59, -37027.99, -20756.30, 8131.88, -26694.51, -35091.46, 0.00, 0.00, 0.00
77, -15121.98, 32479.50, -26570.50, -37063.35, -20778.00, 8077.90, -26722.49, -35105.45, 0.00, 0.00, 0.00
79, -15127.62, 32470.02, -26573.34, -37054.95, -20762.06, 8131.83, -26687.69, -35097.63, 0.00, 0.00, 0.00
81, -15119.23, 32485.02, -26567.26, -37069.92, -20765.33, 8102.60, -26706.38, -35092.28, 0.00, 0.00, 0.00
83, -15150.79, 32455.49, -26576.58, -37070.70, -20777.24, 8124.55, -26701.06, -35105.61, 0.00, 0.00, 0.00
85, -15166.93, 32448.94, -26596.09, -37100.27, -20811.87, 8159.41, -26747.82, -35139.22, 0.00, 0.00, 0.00
87, -15148.83, 32461.13, -26567.33, -37065.72, -20801.38, 8089.79, -26735.61, -35125.18, 0.00, 0.00, 0.00
89, -15136.80, 32490.63, -26552.84, -37064.38, -20800.94, 8186.06, -26743.71, -35126.95, 0.00, 0.00, 0.00
91, -15126.97, 32492.89, -26528.86, -37037.44, -20775.77, 8067.71, -26726.52, -35107.70, 0.00, 0.00, 0.00
93, -15159.89, 32472.61, -26567.60, -37076.51, -20820.00, 8173.54, -26772.23, -35154.75, 0.00, 0.00, 0.00
95, -15130.83, 32485.53, -26515.18, -37022.49, -20773.13, 8002.66, -26724.46, -35095.28, 0.00, 0.00, 0.00
97, -15188.59, 32449.01, -26570.46, -37075.93, -20822.86, 8167.84, -26771.15, -35143.22, 0.00, 0.00, 0.00
99, -15144.76, 32477.42, -26516.92, -37024.25, -20759.79, 7996.20, -26691.98, -35066.78, 0.00, 0.00, 0.00
101, -15195.30, 32443.29, -26570.46, -37067.86, -20790.74, 8198.91, -26730.21, -35120.65, 0.00, 0.00, 0.00
103, -15178.96, 32447.36, -26545.51, -37040.13, -20757.77, 8034.51, -26691.83, -35080.30, 0.00, 0.00, 0.00
105, -15213.07, 32437.52, -26584.40, -37072.60, -20779.52, 8217.82, -26730.21, -35121.16, 0.00, 0.00, 0.00
107, -15193.98, 32440.67, -26569.96, -37059.66, -20759.65, 8002.44, -26709.69, -35090.58, 0.00, 0.00, 0.00
109, -15216.87, 32432.45, -26596.61, -37077.12, -20775.90, 8208.48, -26718.02, -35117.79, 0.00, 0.00, 0.00
111, -15185.08, 32449.39, -26579.24, -37060.93, -20774.29, 8028.28, -26722.16, -35106.52, 0.00, 0.00, 0.00
113, -15179.11, 32466.56, -26577.25, -37033.64, -20777.51, 8190.30, -26705.39, -35117.52, 0.00, 0.00, 0.00
115, -15127.37, 32507.79, -26541.67, -36990.28, -20760.17, 8026.73, -26708.90, -35091.41, 0.00, 0.00, 0.00
117, -15150.59, 32494.43, -26571.04, -36989.83, -20782.81, 8166.19, -26729.82, -35125.09, 0.00, 0.00, 0.00
119, -15120.51, 32518.17, -26562.28, -36974.79, -20780.06, 8042.63, -26726.31, -35106.70, 0.00, 0.00, 0.00
121, -15166.35, 32485.53, -26604.36, -36979.86, -20815.98, 8172.87, -26745.89, -35138.82, 0.00, 0.00, 0.00
123, -15133.87, 32526.64, -26598.11, -36959.43, -20807.28, 8112.97, -26729.49, -35103.88, 0.00, 0.00, 0.00
125, -15167.69, 32499.81, -26633.31, -36966.41, -20801.31, 8195.89, -26708.93, -35113.92, 0.00, 0.00, 0.00
127, -15160.99, 32511.48, -26643.21, -36978.73, -20795.68, 8176.89, -26710.96, -35115.39, 0.00, 0.00, 0.00
129, -15168.59, 32502.99, -26645.51, -36968.09, -20762.63, 8198.28, -26678.30, -35108.35, 0.00, 0.00, 0.00
131, -15203.66, 32476.32, -26689.86, -37033.75, -20795.30, 8213.46, -26720.75, -35155.58, 0.00, 0.00, 0.00
133, -15196.88, 32467.47, -26680.92, -37027.88, -20790.79, 8134.16, -26702.42, -35142.55, 0.00, 0.00, 0.00
135, -15187.16, 32484.33, -26686.06, -37045.42, -20821.05, 8206.62, -26748.76, -35160.10, 0.00, 0.00, 0.00
137, -15138.19, 32514.17, -26630.85, -36997.41, -20787.32, 8108.01, -26711.72, -35126.08, 0.00, 0.00, 0.00
139, -15141.16, 32520.85, -26643.21, -37027.81, -20819.51, 8224.46, -26758.61, -35169.73, 0.00, 0.00, 0.00
141, -15100.26, 32549.91, -26599.67, -36989.27, -20787.37, 8061.18, -26730.43, -35139.76, 0.00, 0.00, 0.00
143, -15118.36, 32549.75, -26617.84, -37006.42, -20802.03, 8189.68, -26759.22, -35171.07, 0.00, 0.00, 0.00
145, -15098.87, 32559.09, -26600.61, -36982.43, -20793.18, 8047.05, -26750.75, -35146.15, 0.00, 0.00, 0.00
147, -15122.16, 32561.95, -26628.55, -36994.08, -20811.40, 8255.37, -26766.97, -35173.17, 0.00, 0.00, 0.00
149, -15083.05, 32585.89, -26588.34, -36959.99, -20779.88, 8087.67, -26728.35, -35127.15, 0.00, 0.00, 0.00
151, -15114.43, 32572.37, -26610.24, -36978.05, -20794.43, 8274.95, -26740.29, -35153.53, 0.00, 0.00, 0.00
153, -15085.35, 32593.11, -26580.18, -36955.14, -20758.15, 8094.59, -26705.95, -35101.67, 0.00, 0.00, 0.00
155, -15128.98, 32570.09, -26618.07, -36984.18, -20765.69, 8293.37, -26707.05, -35133.72, 0.00, 0.00, 0.00
157, -15128.87, 32560.72, -26620.28, -36997.75, -20761.15, 8134.45, -26699.81, -35110.10, 0.00, 0.00, 0.00
159, -15147.20, 32552.86, -26638.38, -37010.60, -20763.65, 8315.21, -26694.89, -35122.21, 0.00, 0.00, 0.00
161, -15128.98, 32559.03, -26627.92, -37013.64, -20775.72, 8174.64, -26710.27, -35113.49, 0.00, 0.00, 0.00
163, -15104.41, 32590.32, -26605.24, -36987.15, -20764.77, 8342.12, -26698.13, -35108.46, 0.00, 0.00, 0.00
165, -15124.22, 32565.82, -26636.82, -37035.43, -20815.78, 8213.28, -26755.04, -35145.03, 0.00, 0.00, 0.00
167, -15123.12, 32572.44, -26637.94, -37031.05, -20821.48, 8329.74, -26771.85, -35168.84, 0.00, 0.00, 0.00
169, -15074.46, 32618.37, -26599.89, -37007.54, -20798.43, 8231.81, -26750.37, -35135.45, 0.00, 0.00, 0.00
171, -15074.80, 32622.50, -26602.58, -37001.25, -20790.05, 8300.28, -26743.06, -35143.11, 0.00, 0.00, 0.00
173, -15090.80, 32614.52, -26621.29, -37030.94, -20810.79, 8255.48, -26764.38, -35157.37, 0.00, 0.00, 0.00
175, -15088.50, 32619.08, -26612.72, -37008.32, -20802.03, 8284.94, -26740.73, -35147.40, 0.00, 0.00, 0.00
177, -15097.96, 32617.86, -26614.89, -37020.28, -20800.78, 8293.99, -26747.77, -35139.89, 0.00, 0.00, 0.00
179, -15106.07, 32603.24, -26606.33, -37003.00, -20773.60, 8294.53, -26710.04, -35120.56, 0.00, 0.00, 0.00
181, -15112.39, 32607.57, -26626.07, -37026.63, -20796.73, 8326.74, -26745.27, -35140.74, 0.00, 0.00, 0.00
183, -15098.63, 32614.84, -26607.49, -37000.70, -20768.05, 8219.97, -26701.71, -35115.80, 0.00, 0.00, 0.00
185, -15117.27, 32615.20, -26632.73, -37029.82, -20790.45, 8290.33, -26743.24, -35147.71, 0.00, 0.00, 0.00
187, -15100.15, 32620.60, -26617.84, -37006.75, -20783.90, 8159.01, -26730.14, -35129.72, 0.00, 0.00, 0.00
189, -15113.89, 32624.47, -26639.99, -37032.95, -20816.58, 8307.27, -26773.23, -35166.54, 0.00, 0.00, 0.00
191, -15080.59, 32640.45, -26600.30, -36998.06, -20774.02, 8151.10, -26731.37, -35130.86, 0.00, 0.00, 0.00
193, -15100.26, 32635.89, -26622.80, -37020.99, -20797.22, 8326.34, -26761.65, -35163.20, 0.00, 0.00, 0.00
195, -15078.80, 32640.54, -26606.40, -37003.76, -20784.66, 8131.83, -26749.92, -35141.23, 0.00, 0.00, 0.00
197, -15104.84, 32636.14, -26633.71, -37030.25, -20798.61, 8321.55, -26761.77, -35175.88, 0.00, 0.00, 0.00
199, -15095.41, 32634.42, -26623.88, -37022.07, -20790.23, 8129.75, -26741.29, -35145.41, 0.00, 0.00, 0.00
201, -15114.61, 32630.93, -26638.21, -37022.24, -20790.72, 8304.66, -26730.21, -35147.74, 0.00, 0.00, 0.00
203, -15110.43, 32623.62, -26626.43, -37016.63, -20778.85, 8117.64, -26709.93, -35119.93, 0.00, 0.00, 0.00
205, -15143.51, 32608.20, -26648.33, -37040.75, -20791.12, 8293.23, -26720.04, -35151.85, 0.00, 0.00, 0.00
207, -15113.04, 32627.82, -26619.68, -37033.09, -20777.04, 8130.42, -26715.38, -35124.63, 0.00, 0.00, 0.00
209, -15137.81, 32614.37, -26637.15, -37047.77, -20791.95, 8316.82, -26732.51, -35152.34, 0.00, 0.00, 0.00
211, -15101.58, 32642.67, -26606.35, -37028.26, -20773.38, 8170.37, -26731.81, -35126.21, 0.00, 0.00, 0.00
213, -15121.29, 32628.81, -26623.92, -37031.59, -20791.28, 8318.65, -26741.54, -35152.23, 0.00, 0.00, 0.00
215, -15106.65, 32639.09, -26611.09, -37038.54, -20805.43, 8224.59, -26758.30, -35147.85, 0.00, 0.00, 0.00
217, -15113.15, 32642.55, -26604.07, -37017.28, -20792.69, 8323.36, -26737.74, -35143.85, 0.00, 0.00, 0.00
219, -15082.76, 32674.03, -26578.06, -37009.21, -20774.38, 8255.06, -26731.41, -35116.89, 0.00, 0.00, 0.00
221, -15105.44, 32654.42, -26588.14, -37010.33, -20770.67, 8322.85, -26720.26, -35126.82, 0.00, 0.00, 0.00
223, -15126.56, 32646.31, -26612.01, -37041.85, -20798.50, 8304.66, -26751.66, -35136.92, 0.00, 0.00, 0.00
225, -15133.29, 32637.93, -26611.67, -37033.42, -20782.81, 8317.17, -26726.56, -35121.38, 0.00, 0.00, 0.00
227, -15120.44, 32654.29, -26597.32, -37035.14, -20757.42, 8363.31, -26703.87, -35096.26, 0.00, 0.00, 0.00
229, -15123.15, 32641.39, -26594.46, -37028.61, -20755.63, 8288.50, -26688.32, -35087.99, 0.00, 0.00, 0.00
231, -15132.82, 32644.12, -26606.09, -37056.73, -20772.66, 8390.69, -26718.51, -35115.71, 0.00, 0.00, 0.00
233, -15102.45, 32662.31, -26570.32, -37024.64, -20745.57, 8292.52, -26678.28, -35084.79, 0.00, 0.00, 0.00
235, -15124.62, 32653.17, -26595.15, -37055.14, -20781.36, 8393.91, -26730.21, -35128.58, 0.00, 0.00, 0.00
237, -15084.57, 32683.01, -26550.43, -37009.79, -20752.52, 8268.04, -26695.94, -35090.09, 0.00, 0.00, 0.00
239, -15110.05, 32675.21, -26574.79, -37028.70, -20781.64, 8453.25, -26733.20, -35130.41, 0.00, 0.00, 0.00
241, -15073.81, 32697.11, -26539.01, -36992.00, -20757.93, 8262.86, -26702.98, -35083.90, 0.00, 0.00, 0.00
243, -15102.49, 32695.01, -26563.51, -37012.61, -20773.89, 8443.62, -26725.29, -35105.11, 0.00, 0.00, 0.00
245, -15100.55, 32684.42, -26556.75, -37013.62, -20761.13, 8222.18, -26710.69, -35082.52, 0.00, 0.00, 0.00
247, -15125.56, 32673.69, -26578.95, -37031.52, -20772.06, 8395.83, -26718.92, -35095.66, 0.00, 0.00, 0.00
249, -15091.14, 32696.47, -26545.38, -37001.84, -20729.05, 8255.75, -26674.44, -35041.30, 0.00, 0.00, 0.00
251, -15137.54, 32663.32, -26587.00, -37040.91, -20752.61, 8456.27, -26699.54, -35075.56, 0.00, 0.00, 0.00
253, -15115.68, 32673.44, -26567.77, -37039.84, -20738.64, 8251.97, -26687.45, -35057.68, 0.00, 0.00, 0.00
255, -15133.05, 32667.77, -26581.45, -37048.21, -20757.30, 8423.95, -26698.06, -35097.76, 0.00, 0.00, 0.00
1, -15102.22, 32691.79, -26566.86, -37043.19, -20770.16, 8287.69, -26714.92, -35097.42, 0.00, 0.00, 0.00
3, -15094.22, 32707.75, -26554.99, -37024.70, -20760.54, 8445.76, -26711.92, -35109.63, 0.00, 0.00, 0.00
5, -15081.53, 32717.28, -26550.79, -37030.34, -20772.91, 8309.73, -26736.91, -35115.21, 0.00, 0.00, 0.00
7, -15096.19, 32707.22, -26559.06, -37030.45, -20780.88, 8387.98, -26728.55, -35128.54, 0.00, 0.00, 0.00
9, -15067.85, 32732.81, -26533.26, -37015.85, -20765.98, 8310.38, -26724.39, -35096.86, 0.00, 0.00, 0.00
11, -15089.75, 32720.63, -26539.25, -37009.39, -20755.43, 8393.66, -26712.10, -35096.75, 0.00, 0.00, 0.00
13, -15093.13, 32722.15, -26542.18, -37027.00, -20754.49, 8394.31, -26722.76, -35087.23, 0.00, 0.00, 0.00
15, -15110.02, 32702.70, -26555.15, -37026.27, -20749.88, 8432.26, -26710.07, -35084.97, -0.03, 0.97, 0.15
17, -15102.09, 32716.69, -26557.22, -37032.95, -20745.26, 8460.02, -26708.70, -35072.99, 0.00, 0.00, 0.00
19, -15107.28, 32710.01, -26559.39, -37025.24, -20731.38, 8440.31, -26685.86, -35059.54, 0.00, 0.00, 0.00
21, -15131.59, 32694.07, -26586.04, -37061.74, -20742.96, 8532.80, -26709.69, -35077.22, 0.00, 0.00, 0.00
23, -15103.81, 32705.99, -26562.83, -37041.78, -20727.24, 8436.33, -26691.31, -35059.56, 0.00, 0.00, 0.00
25, -15123.79, 32701.32, -26588.47, -37075.35, -20759.83, 8522.94, -26736.08, -35108.09, -0.03, 0.97, 0.16
27, -15093.01, 32716.54, -26552.02, -37041.82, -20745.17, 8369.03, -26715.38, -35090.34, 0.00, 0.00, 0.00
29, -15107.07, 32718.57, -26569.16, -37070.28, -20778.83, 8503.23, -26758.48, -35139.71, 0.00, 0.00, 0.00
31, -15075.60, 32738.96, -26537.76, -37040.80, -20753.88, 8314.98, -26738.03, -35117.18, 0.00, 0.00, 0.00
33, -15100.26, 32734.33, -26556.26, -37052.29, -20768.19, 8483.22, -26752.38, -35144.34, 0.00, 0.00, 0.00
35, -15055.11, 32766.27, -26511.94, -37007.67, -20730.17, 8284.81, -26710.54, -35084.28, -0.03, 0.97, 0.15
37, -15101.75, 32739.69, -26560.44, -37047.37, -20770.11, 8464.11, -26750.34, -35130.28, 0.00, 0.00, 0.00
39, -15071.58, 32754.78, -26537.15, -37021.06, -20746.38, 8256.38, -26714.78, -35082.65, 0.00, 0.00, 0.00
41, -15071.98, 32773.24, -26529.93, -37000.18, -20726.06, 8451.06, -26689.37, -35066.69, 0.00, 0.00, 0.00
43, -15063.15, 32772.26, -26527.07, -37003.47, -20719.40, 8281.01, -26682.15, -35042.84, 0.00, 0.00, 0.00
45, -15100.44, 32745.88, -26560.06, -37030.65, -20728.61, 8451.71, -26692.29, -35070.13, -0.03, 0.97, 0.15
47, -15076.41, 32759.92, -26542.96, -37019.94, -20719.87, 8266.41, -26685.54, -35042.04, 0.00, 0.00, 0.00
49, -15094.22, 32758.38, -26557.72, -37022.40, -20736.14, 8446.52, -26706.06, -35068.14, 0.00, 0.00, 0.00
51, -15074.28, 32768.62, -26543.52, -37034.63, -20741.10, 8339.84, -26724.50, -35076.37, 0.00, 0.00, 0.00
53, -15078.02, 32773.82, -26540.59, -37025.95, -20742.66, 8467.13, -26714.16, -35092.50, 0.00, 0.00, 0.00
55, -15073.28, 32782.16, -26543.21, -37044.66, -20754.60, 8362.55, -26744.35, -35111.04, -0.02, 0.98, 0.14
57, -15062.04, 32796.91, -26528.39, -37016.36, -20736.18, 8412.03, -26722.11, -35110.68, 0.00, 0.00, 0.00
59, -15049.63, 32809.36, -26528.79, -37023.70, -20744.45, 8377.88, -26740.73, -35108.91, 0.00, 0.00, 0.00
61, -15059.51, 32801.18, -26534.36, -37004.94, -20748.36, 8411.97, -26721.44, -35102.00, 0.00, 0.00, 0.00
63, -15034.03, 32829.73, -26520.79, -36989.66, -20728.92, 8418.61, -26697.86, -35065.53, 0.00, 0.00, 0.00
65, -15043.86, 32820.34, -26525.71, -36969.32, -20719.73, 8434.50, -26684.45, -35049.03, -0.03, 0.98, 0.15
67, -15046.12, 32820.65, -26548.22, -36983.66, -20734.35, 8533.14, -26692.72, -35058.09, 0.00, 0.00, 0.00
69, -15030.27, 32825.79, -26540.93, -36949.78, -20717.92, 8466.04, -26666.44, -35044.63, 0.00, 0.00, 0.00
71, -15025.04, 32845.53, -26557.29, -36951.77, -20734.08, 8559.44, -26684.85, -35059.22, 0.00, 0.00, 0.00
73, -15011.92, 32853.09, -26548.11, -36919.49, -20712.49, 8382.08, -26646.56, -35041.66, 0.00, 0.00, 0.00
75, -15061.95, 32823.27, -26611.47, -36971.62, -20760.48, 8492.08, -26711.81, -35112.45, -0.03, 0.98, 0.15
77, -15029.47, 32835.76, -26588.14, -36945.58, -20737.93, 8320.95, -26695.56, -35095.75, 0.00, 0.00, 0.00
79, -15052.56, 32833.64, -26615.41, -36973.63, -20754.24, 8473.90, -26728.80, -35139.67, 0.00, 0.00, 0.00
81, -15015.05, 32858.85, -26577.25, -36933.66, -20713.05, 8301.86, -26666.68, -35094.68, 0.00, 0.00, 0.00
83, -15036.11, 32854.07, -26608.39, -36951.84, -20750.73, 8453.76, -26716.62, -35136.14, 0.00, 0.00, 0.00
85, -15004.79, 32868.46, -26578.06, -36927.85, -20719.33, 8263.35, -26680.85, -35096.46, -0.02, 0.97, 0.15
87, -15015.77, 32883.06, -26590.28, -36927.47, -20730.66, 8486.02, -26689.52, -35109.47, 0.00, 0.00, 0.00
89, -15004.05, 32885.70, -26581.81, -36927.56, -20733.32, 8300.23, -26690.98, -35089.04, 0.00, 0.00, 0.00
91, -15031.55, 32874.90, -26596.21, -36933.06, -20739.22, 8501.53, -26681.81, -35099.39, 0.00, 0.00, 0.00
93, -15005.31, 32893.30, -26579.89, -36925.95, -20735.96, 8315.50, -26681.88, -35067.67, 0.00, 0.00, 0.00
95, -15021.40, 32895.29, -26586.73, -36928.63, -20733.50, 8499.90, -26671.87, -35072.41, -0.02, 0.97, 0.15
97, -14986.20, 32921.68, -26553.36, -36914.60, -20718.30, 8388.74, -26654.48, -35039.58, 0.00, 0.00, 0.00
99, -15031.44, 32886.55, -26590.13, -36948.91, -20738.44, 8534.41, -26687.36, -35094.59, 0.00, 0.00, 0.00
101, -14979.87, 32932.46, -26546.18, -36925.95, -20714.68, 8423.59, -26671.38, -35063.09, 0.00, 0.00, 0.00
103, -15005.17, 32915.71, -26561.90, -36940.77, -20728.56, 8515.81, -26686.84, -35098.81, 0.00, 0.00, 0.00
105, -14970.06, 32950.58, -26533.89, -36935.07, -20708.42, 8456.22, -26674.73, -35077.82, -0.03, 0.97, 0.15
107, -14982.58, 32937.75, -26541.85, -36933.82, -20707.53, 8495.47, -26671.98, -35091.90, 0.00, 0.00, 0.00
109, -15004.23, 32926.06, -26572.63, -36971.62, -20739.49, 8465.68, -26705.17, -35113.18, 0.00, 0.00, 0.00
111, -14962.08, 32961.47, -26525.35, -36914.82, -20690.81, 8431.61, -26646.99, -35055.38, 0.00, 0.00, 0.00
113, -14993.71, 32943.09, -26558.36, -36962.90, -20727.85, 8478.37, -26698.42, -35090.94, 0.00, 0.00, 0.00
115, -14993.28, 32939.07, -26540.88, -36937.46, -20702.21, 8466.15, -26660.20, -35057.57, -0.03, 0.98, 0.14
117, -15021.15, 32927.07, -26568.67, -36973.09, -20735.58, 8584.10, -26690.53, -35084.79, 0.00, 0.00, 0.00
119, -15001.22, 32943.92, -26535.39, -36932.17, -20714.12, 8461.88, -26651.82, -35045.79, 0.00, 0.00, 0.00
121, -15002.29, 32957.67, -26547.95, -36941.66, -20728.87, 8608.04, -26675.91, -35062.64, 0.00, 0.00, 0.00
123, -14981.52, 32964.08, -26525.78, -36917.79, -20706.03, 8473.28, -26650.61, -35036.45, 0.00, 0.00, 0.00
125, -15003.56, 32957.67, -26553.04, -36955.90, -20738.26, 8577.06, -26695.18, -35082.02, -0.03, 0.97, 0.14
127, -14957.65, 32985.83, -26507.40, -36921.50, -20694.18, 8377.95, -26658.50, -35042.04, 0.00, 0.00, 0.00
129, -14991.20, 32971.35, -26537.76, -36957.02, -20712.85, 8557.68, -26683.06, -35091.54, 0.00, 0.00, 0.00
131, -14961.23, 32986.28, -26513.17, -36937.84, -20693.69, 8345.43, -26668.09, -35066.13, 0.00, 0.00, 0.00
133, -14996.57, 32974.07, -26546.83, -36959.50, -20707.53, 8557.30, -26692.36, -35100.57, 0.00, 0.00, 0.00
135, -14971.20, 32982.70, -26525.19, -36943.66, -20691.32, 8328.82, -26678.06, -35067.85, -0.03, 0.97, 0.14
137, -14991.56, 32978.88, -26544.28, -36950.34, -20703.44, 8502.29, -26677.72, -35084.77, 0.00, 0.00, 0.00
139, -14979.71, 32977.79, -26531.83, -36947.19, -20694.96, 8323.10, -26669.14, -35057.86, 0.00, 0.00, 0.00
141, -15013.44, 32960.46, -26568.20, -36961.43, -20722.88, 8518.18, -26699.31, -35085.44, 0.00, 0.00, 0.00
143, -14993.26, 32973.14, -26559.04, -36958.09, -20724.22, 8360.67, -26677.12, -35061.48, 0.00, 0.00, 0.00
145, -14996.03, 32982.99, -26547.10, -36937.75, -20699.55, 8508.82, -26645.98, -35057.64, -0.03, 0.97, 0.14
147, -14985.59, 32989.59, -26552.11, -36947.41, -20723.78, 8380.25, -26673.95, -35057.93, 0.00, 0.00, 0.00
149, -14995.70, 32985.81, -26552.64, -36938.07, -20720.38, 8468.09, -26663.24, -35072.05, 0.00, 0.00, 0.00
151, -14962.12, 33015.29, -26526.07, -36926.60, -20711.95, 8364.56, -26672.47, -35061.48, 0.00, 0.00, 0.00
153, -14965.19, 33013.68, -26517.06, -36913.88, -20703.10, 8467.87, -26659.19, -35070.60, 0.00, 0.00, 0.00
155, -14955.51, 33025.86, -26510.22, -36930.38, -20699.66, 8455.51, -26676.40, -35079.52, -0.03, 0.97, 0.14
157, -14946.48, 33035.25, -26484.85, -36908.34, -20661.55, 8452.67, -26640.71, -35065.10, 0.00, 0.00, 0.00
159, -14962.82, 33030.58, -26509.57, -36943.05, -20680.08, 8460.78, -26671.26, -35084.55, 0.00, 0.00, 0.00
161, -14976.67, 33010.89, -26513.88, -36943.23, -20658.91, 8405.24, -26643.55, -35070.04, 0.00, 0.00, 0.00
163, -15019.57, 32980.76, -26553.51, -36995.42, -20689.40, 8509.76, -26688.05, -35104.13, 0.00, 0.00, 0.00
165, -14999.18, 32984.60, -26523.41, -36958.09, -20662.47, 8425.51, -26641.20, -35047.55, -0.03, 0.97, 0.14
167, -15026.52, 32977.65, -26551.50, -36983.22, -20698.99, 8593.42, -26684.23, -35067.96, 0.00, 0.00, 0.00
169, -15004.66, 32990.08, -26520.34, -36947.23, -20690.12, 8467.98, -26665.54, -35028.51, 0.00, 0.00, 0.00
171, -15037.63, 32981.59, -26545.31, -36978.32, -20713.65, 8591.59, -26676.78, -35066.58, 0.00, 0.00, 0.00
173, -15022.65, 32975.91, -26517.01, -36950.92, -20700.93, 8406.18, -26660.62, -35049.70, 0.00, 0.00, 0.00
175, -15042.75, 32973.25, -26523.67, -36962.41, -20708.09, 8565.52, -26674.39, -35073.73, -0.02, 0.97, 0.14
177, -15025.78, 32975.71, -26484.49, -36938.29, -20681.31, 8377.59, -26644.11, -35042.10, 0.00, 0.00, 0.00
179, -15063.82, 32956.42, -26516.37, -36973.72, -20702.77, 8567.94, -26668.04, -35085.24, 0.00, 0.00, 0.00
181, -15044.89, 32961.67, -26497.30, -36972.45, -20678.31, 8375.60, -26650.74, -35065.41, 0.00, 0.00, 0.00
183, -15067.24, 32951.84, -26514.67, -36983.78, -20691.59, 8544.38, -26680.90, -35094.38, 0.00, 0.00, 0.00
185, -15040.76, 32968.42, -26496.85, -36974.28, -20671.16, 8317.29, -26668.02, -35068.30, -0.03, 0.97, 0.14
187, -15076.61, 32953.69, -26531.16, -36999.42, -20691.43, 8493.19, -26686.44, -35096.20, 0.00, 0.00, 0.00
189, -15054.57, 32961.40, -26513.88, -36995.46, -20674.80, 8357.61, -26667.22, -35057.97, 0.00, 0.00, 0.00
191, -15092.28, 32933.59, -26554.90, -37017.64, -20701.31, 8549.99, -26692.99, -35089.09, 0.00, 0.00, 0.00
193, -15065.88, 32957.63, -26534.89, -37006.69, -20699.19, 8407.18, -26681.79, -35057.23, 0.00, 0.00, 0.00
195, -15076.56, 32955.39, -26520.93, -36980.87, -20692.37, 8532.67, -26658.01, -35039.42, -0.03, 0.96, 0.14
197, -15071.02, 32960.98, -26525.75, -36994.80, -20719.22, 8449.94, -26698.69, -35047.54, 0.00, 0.00, 0.00
199, -15061.95, 32974.32, -26512.03, -36969.61, -20718.21, 8543.42, -26689.44, -35043.60, 0.00, 0.00, 0.00
201, -15074.51, 32962.56, -26522.29, -36999.98, -20736.18, 8483.78, -26706.73, -35058.51, 0.00, 0.00, 0.00
203, -15070.42, 32966.39, -26500.03, -36978.79, -20701.49, 8510.07, -26675.96, -35046.11, 0.00, 0.00, 0.00
205, -15055.15, 32987.31, -26496.96, -36992.54, -20694.90, 8516.35, -26685.72, -35056.09, -0.03, 0.97, 0.14
207, -15062.59, 32976.46, -26506.31, -36996.67, -20676.84, 8504.66, -26670.68, -35063.34, 0.00, 0.00, 0.00
209, -15074.04, 32978.50, -26538.87, -37037.82, -20700.82, 8538.84, -26698.76, -35093.07, 0.00, 0.00, 0.00
211, -15054.99, 32983.42, -26515.29, -37009.48, -20672.81, 8417.47, -26666.44, -35060.12, 0.00, 0.00, 0.00
213, -15071.58, 32985.54, -26545.51, -37038.11, -20701.22, 8539.08, -26699.18, -35087.41, 0.00, 0.00, 0.00
215, -15037.85, 33005.86, -26507.40, -36990.21, -20657.86, 8413.55, -26650.56, -35039.89, -0.03, 0.97, 0.14
217, -15061.59, 33003.78, -26535.81, -37019.14, -20684.88, 8500.06, -26681.23, -35070.91, 0.00, 0.00, 0.00
219, -15027.59, 33023.43, -26486.26, -36964.75, -20647.58, 8314.42, -26632.51, -35012.42, 0.00, 0.00, 0.00
221, -15067.13, 33011.60, -26528.84, -37007.02, -20695.05, 8480.45, -26685.12, -35068.12, 0.00, 0.00, 0.00
223, -15019.81, 33041.78, -26477.47, -36963.55, -20669.69, 8291.98, -26657.11, -35021.94, 0.00, 0.00, 0.00
225, -15045.23, 33033.71, -26502.75, -36987.91, -20706.97, 8491.52, -26699.02, -35066.73, -0.03, 0.97, 0.14
227, -15008.10, 33059.91, -26466.25, -36961.60, -20683.37, 8296.97, -26674.79, -35027.46, 0.00, 0.00, 0.00
229, -15045.47, 33041.42, -26501.72, -37002.57, -20708.51, 8496.37, -26701.17, -35082.45, 0.00, 0.00, 0.00
231, -15012.10, 33061.45, -26469.74, -36984.45, -20677.17, 8321.17, -26674.39, -35051.91, 0.00, 0.00, 0.00
233, -15051.42, 33039.88, -26501.90, -37011.52, -20696.33, 8511.97, -26690.46, -35091.75, 0.00, 0.00, 0.00
235, -15013.76, 33065.00, -26476.62, -36990.59, -20673.82, 8344.60, -26671.02, -35055.76, -0.03, 0.98, 0.14
237, -15036.15, 33056.29, -26492.16, -36993.70, -20678.76, 8537.43, -26670.57, -35075.23, 0.00, 0.00, 0.00
239, -15024.01, 33062.34, -26476.78, -36992.20, -20668.84, 8404.17, -26660.65, -35049.70, 0.00, 0.00, 0.00
241, -15044.58, 33053.11, -26489.92, -36998.66, -20669.19, 8555.38, -26653.76, -35060.70, 0.00, 0.00, 0.00
243, -15029.74, 33068.62, -26482.55, -37000.09, -20668.34, 8450.99, -26657.56, -35036.45, 0.00, 0.00, 0.00
245, -15035.75, 33065.34, -26479.24, -36980.98, -20664.86, 8541.07, -26645.07, -35030.86, -0.03, 0.97, 0.14
247, -15021.11, 33082.32, -26476.11, -36990.10, -20675.81, 8459.78, -26666.79, -35034.04, 0.00, 0.00, 0.00
249, -15025.78, 33083.02, -26478.14, -36978.32, -20686.40, 8489.66, -26669.43, -35046.39, 0.00, 0.00, 0.00
251, -15013.22, 33099.58, -26475.17, -36987.20, -20697.42, 8454.08, -26694.75, -35060.74, 0.00, 0.00, 0.00
253, -15007.36, 33100.74, -26468.85, -36972.54, -20693.22, 8411.88, -26683.20, -35065.80, 0.00, 0.00, 0.00
255, -15024.26, 33096.85, -26494.44, -37005.91, -20712.02, 8455.55, -26712.61, -35097.54, -0.03, 0.98, 0.14
1, -14998.58, 33115.20, -26471.30, -36970.79, -20666.38, 8409.37, -26670.48, -35071.76, 0.00, 0.00, 0.00
3, -15019.75, 33110.82, -26503.83, -37004.77, -20692.95, 8505.40, -26703.36, -35104.13, 0.00, 0.00, 0.00
5, -14996.21, 33122.98, -26478.75, -36970.12, -20666.76, 8382.71, -26662.77, -35066.73, 0.00, 0.00, 0.00
7, -15011.41, 33121.89, -26500.92, -36989.95, -20677.73, 8497.33, -26666.21, -35071.11, 0.00, 0.00, 0.00
9, -14997.06, 33126.54, -26489.23, -36958.54, -20650.46, 8392.25, -26628.17, -35026.32, -0.03, 0.98, 0.14
11, -15024.93, 33115.65, -26525.87, -36980.40, -20665.10, 8587.65, -26645.42, -35044.11, 0.00, 0.00, 0.00
13, -14988.34, 33138.83, -26498.57, -36930.58, -20632.65, 8406.63, -26614.56, -34990.67, 0.00, 0.00, 0.00
15, -15030.99, 33117.86, -26550.74, -36958.09, -20671.32, 8568.72, -26650.25, -35038.55, 0.00, 0.00, 0.00
17, -14997.06, 33134.70, -26529.80, -36929.37, -20655.45, 8357.67, -26628.04, -35012.26, 0.00, 0.00, 0.00
19, -15013.64, 33127.88, -26553.98, -36935.05, -20680.71, 8552.98, -26640.80, -35056.56, -0.04, 0.97, 0.13
21, -14979.54, 33143.90, -26530.42, -36919.07, -20684.57, 8347.06, -26653.49, -35052.83, 0.00, 0.00, 0.00
23, -14993.57, 33148.39, -26545.96, -36923.65, -20708.20, 8508.55, -26675.24, -35097.65, 0.00, 0.00, 0.00
25, -14954.61, 33177.23, -26515.85, -36903.54, -20694.32, 8322.74, -26673.19, -35079.92, 0.00, 0.00, 0.00
27, -14987.49, 33158.34, -26536.24, -36921.77, -20707.79, 8504.68, -26682.33, -35120.89, 0.00, 0.00, 0.00
29, -14965.97, 33167.98, -26522.49, -36922.20, -20704.17, 8329.60, -26691.16, -35104.73, -0.04, 0.96, 0.14
31, -14978.86, 33169.68, -26525.64, -36913.32, -20684.62, 8451.78, -26663.71, -35096.91, 0.00, 0.00, 0.00
33, -14982.69, 33169.27, -26535.97, -36937.96, -20694.03, 8358.41, -26675.02, -35084.93, 0.00, 0.00, 0.00
35, -14997.26, 33164.20, -26536.26, -36927.81, -20682.58, 8493.04, -26651.68, -35068.86, 0.00, 0.00, 0.00
37, -14985.55, 33175.13, -26523.36, -36930.63, -20672.99, 8387.56, -26648.08, -35036.89, 0.00, 0.00, 0.00
39, -15003.18, 33160.91, -26531.27, -36926.58, -20668.95, 8467.22, -26624.71, -35032.54, -0.04, 0.96, 0.14
41, -14997.44, 33171.35, -26532.28, -36933.08, -20679.21, 8454.93, -26637.09, -35027.33, 0.00, 0.00, 0.00
43, -14985.91, 33180.63, -26519.70, -36909.90, -20662.60, 8474.46, -26621.20, -35017.05, 0.00, 0.00, 0.00
45, -14989.71, 33182.57, -26531.97, -36933.46, -20687.86, 8486.89, -26655.26, -35038.73, 0.00, 0.00, 0.00
47, -14999.09, 33166.32, -26537.51, -36939.48, -20686.52, 8442.43, -26657.94, -35053.30, 0.00, 0.00, 0.00
49, -14985.10, 33191.85, -26530.00, -36946.16, -20681.62, 8526.47, -26667.73, -35059.45, -0.04, 0.96, 0.14
51, -14973.12, 33190.77, -26515.74, -36935.50, -20669.66, 8447.91, -26649.63, -35047.98, 0.00, 0.00, 0.00
53, -15013.80, 33166.28, -26557.20, -36985.09, -20706.25, 8564.58, -26689.19, -35095.66, 0.00, 0.00, 0.00
55, -14969.66, 33203.20, -26508.52, -36927.70, -20656.23, 8417.38, -26632.57, -35040.92, 0.00, 0.00, 0.00
57, -15007.25, 33186.19, -26545.96, -36964.40, -20692.98, 8560.83, -26670.37, -35078.02, 0.00, 0.00, 0.00
59, -14976.21, 33203.70, -26510.22, -36925.10, -20658.29, 8413.96, -26624.21, -35024.38, -0.03, 0.97, 0.14
61, -15008.46, 33193.17, -26533.84, -36945.53, -20673.71, 8593.93, -26642.92, -35053.10, 0.00, 0.00, 0.00
63, -14980.12, 33207.27, -26501.48, -36914.15, -20650.71, 8425.45, -26619.68, -35014.97, 0.00, 0.00, 0.00
65, -14984.70, 33224.14, -26501.75, -36910.53, -20652.70, 8645.07, -26626.89, -35029.59, 0.00, 0.00, 0.00
67, -14976.94, 33220.30, -26495.24, -36919.00, -20661.91, 8460.49, -26627.97, -35022.75, 0.00, 0.00, 0.00
69, -14999.72, 33215.00, -26514.44, -36941.62, -20691.99, 8634.37, -26658.86, -35063.05, -0.02, 0.97, 0.14
71, -14964.78, 33239.43, -26484.96, -36929.93, -20675.12, 8478.22, -26655.10, -35038.13, 0.00, 0.00, 0.00
73, -14987.27, 33237.36, -26503.54, -36943.23, -20679.72, 8657.99, -26666.05, -35070.76, 0.00, 0.00, 0.00
75, -14962.19, 33248.98, -26491.58, -36945.91, -20671.65, 8456.33, -26665.76, -35059.40, 0.00, 0.00, 0.00
77, -14986.20, 33237.02, -26506.04, -36949.31, -20671.32, 8562.44, -26664.58, -35082.76, 0.00, 0.00, 0.00
79, -14985.32, 33236.84, -26506.02, -36957.65, -20676.17, 8437.02, -26677.66, -35076.08, -0.03, 0.97, 0.14
81, -14996.48, 33240.51, -26500.76, -36936.97, -20653.95, 8561.28, -26642.47, -35063.05, 0.00, 0.00, 0.00
83, -14981.10, 33254.01, -26488.58, -36941.24, -20641.48, 8452.80, -26635.97, -35038.55, 0.00, 0.00, 0.00
85, -14997.08, 33245.16, -26498.39, -36933.89, -20639.85, 8537.34, -26617.06, -35037.18, 0.00, 0.00, 0.00
87, -14984.50, 33261.52, -26499.13, -36940.04, -20652.83, 8506.72, -26626.45, -35032.40, 0.00, 0.00, 0.00
89, -14993.53, 33248.87, -26504.27, -36935.16, -20670.83, 8521.40, -26627.70, -35043.96, -0.04, 0.97, 0.14
91, -14978.48, 33267.29, -26505.12, -36948.64, -20694.85, 8529.94, -26660.67, -35057.46, 0.00, 0.00, 0.00
93, -14972.34, 33273.75, -26488.13, -36925.24, -20683.12, 8471.89, -26647.55, -35051.25, 0.00, 0.00, 0.00
95, -14960.29, 33293.04, -26481.68, -36935.21, -20681.53, 8500.99, -26674.10, -35066.40, 0.00, 0.00, 0.00
97, -14955.19, 33286.86, -26469.67, -36920.59, -20664.01, 8414.47, -26660.87, -35059.87, 0.00, 0.00, 0.00
99, -14986.93, 33270.26, -26509.37, -36963.53, -20700.15, 8518.88, -26704.79, -35108.18, -0.04, 0.97, 0.13
101, -14963.31, 33282.06, -26485.97, -36929.98, -20668.50, 8396.41, -26660.94, -35066.45, 0.00, 0.00, 0.00
103, -14999.47, 33267.20, -26528.21, -36973.98, -20694.67, 8517.56, -26695.54, -35101.20, 0.00, 0.00, 0.00
105, -14970.97, 33280.81, -26502.73, -36940.73, -20662.82, 8393.55, -26653.31, -35055.27, 0.00, 0.00, 0.00
107, -14988.88, 33283.78, -26524.23, -36956.42, -20674.07, 8608.82, -26664.49, -35068.16, 0.00, 0.00, 0.00
109, -14952.60, 33307.16, -26488.47, -36919.02, -20639.94, 8445.96, -26616.93, -35009.13, -0.03, 0.97, 0.13
111, -15007.32, 33273.32, -26541.51, -36972.96, -20676.88, 8677.15, -26650.83, -35059.61, 0.00, 0.00, 0.00
113, -14962.15, 33302.49, -26497.88, -36935.27, -20646.78, 8483.36, -26602.67, -35014.92, 0.00, 0.00, 0.00
115, -14993.91, 33290.42, -26528.23, -36964.02, -20684.39, 8647.78, -26644.33, -35073.17, 0.00, 0.00, 0.00
117, -14937.42, 33334.21, -26472.31, -36918.93, -20653.14, 8462.62, -26612.95, -35025.88, 0.00, 0.00, 0.00
119, -14986.38, 33303.11, -26504.99, -36947.70, -20689.13, 8661.52, -26649.94, -35084.30, -0.03, 0.97, 0.14
121, -14953.45, 33321.89, -26475.51, -36928.90, -20673.55, 8476.03, -26647.99, -35057.01, 0.00, 0.00, 0.00
123, -14967.67, 33329.02, -26483.44, -36928.52, -20666.31, 8643.06, -26654.48, -35077.46, 0.00, 0.00, 0.00
125, -14941.04, 33343.01, -26463.66, -36928.86, -20653.50, 8472.70, -26653.29, -35057.17, 0.00, 0.00, 0.00
127, -14948.53, 33344.06, -26463.62, -36927.36, -20643.96, 8588.84, -26640.64, -35057.97, 0.00, 0.00, 0.00
129, -14935.41, 33356.87, -26453.82, -36933.37, -20640.96, 8464.25, -26641.76, -35029.45, -0.03, 0.97, 0.13
131, -14975.20, 33322.89, -26475.78, -36942.49, -20645.79, 8561.21, -26628.15, -35033.81, 0.00, 0.00, 0.00
133, -14968.11, 33330.79, -26467.28, -36952.28, -20640.63, 8510.49, -26628.46, -35005.31, 0.00, 0.00, 0.00
135, -14986.55, 33312.99, -26474.43, -36957.02, -20636.22, 8563.78, -26610.29, -35002.81, 0.00, 0.00, 0.00
137, -14969.68, 33329.94, -26463.55, -36965.38, -20625.76, 8563.13, -26604.19, -34986.34, 0.00, 0.00, 0.00
139, -14995.61, 33303.90, -26482.81, -36985.54, -20640.52, 8572.05, -26620.23, -35011.68, -0.04, 0.97, 0.13
141, -14992.97, 33317.93, -26484.65, -37005.26, -20646.57, 8614.61, -26646.88, -35038.86, 0.00, 0.00, 0.00
143, -14963.35, 33334.95, -26448.55, -36966.95, -20628.85, 8517.22, -26629.55, -35024.78, 0.00, 0.00, 0.00
145, -14961.36, 33352.73, -26456.11, -36983.78, -20661.55, 8592.95, -26668.69, -35061.77, 0.00, 0.00, 0.00
147, -14948.53, 33359.66, -26442.13, -36963.97, -20661.30, 8455.46, -26661.07, -35055.94, 0.00, 0.00, 0.00
149, -14962.77, 33357.14, -26453.36, -36982.64, -20676.86, 8567.71, -26684.09, -35087.34, -0.04, 0.97, 0.13
151, -14926.20, 33382.11, -26415.11, -36941.29, -20641.59, 8413.29, -26646.77, -35045.34, 0.00, 0.00, 0.00
153, -14955.69, 33373.75, -26440.75, -36961.09, -20664.79, 8606.79, -26673.83, -35059.87, 0.00, 0.00, 0.00
155, -14945.96, 33373.59, -26422.02, -36943.48, -20640.23, 8495.43, -26638.85, -35017.16, 0.00, 0.00, 0.00
157, -14993.42, 33343.64, -26465.02, -36983.91, -20667.18, 8678.67, -26662.03, -35043.36, 0.00, 0.00, 0.00
159, -14968.99, 33351.91, -26439.03, -36959.23, -20630.53, 8474.89, -26619.03, -34982.69, -0.04, 0.98, 0.14
161, -15016.06, 33327.88, -26471.97, -36991.67, -20637.41, 8676.14, -26627.39, -35007.93, 0.00, 0.00, 0.00
163, -14980.74, 33343.17, -26446.79, -36977.45, -20618.23, 8456.74, -26602.38, -34975.34, 0.00, 0.00, 0.00
165, -15027.19, 33310.25, -26487.69, -37011.96, -20658.06, 8651.42, -26638.18, -35025.18, 0.00, 0.00, 0.00
167, -14991.58, 33334.34, -26456.44, -36990.88, -20652.32, 8450.32, -26645.00, -35001.55, 0.00, 0.00, 0.00
169, -14995.36, 33343.23, -26457.98, -36987.57, -20657.53, 8608.06, -26643.64, -35029.34, -0.03, 0.98, 0.14
171, -14965.92, 33363.11, -26436.41, -36977.03, -20661.59, 8452.33, -26656.49, -35019.95, 0.00, 0.00, 0.00
173, -14973.95, 33366.93, -26436.12, -36968.93, -20667.03, 8601.67, -26650.39, -35038.13, 0.00, 0.00, 0.00
175, -14967.82, 33368.05, -26431.07, -36976.64, -20676.30, 8503.97, -26679.94, -35044.54, 0.00, 0.00, 0.00
177, -14959.40, 33377.88, -26410.57, -36950.38, -20653.14, 8604.75, -26652.33, -35034.82, 0.00, 0.00, 0.00
179, -14968.56, 33370.55, -26424.54, -36978.10, -20667.16, 8564.54, -26675.78, -35043.73, -0.04, 0.96, 0.14
181, -14967.76, 33374.19, -26422.33, -36958.70, -20645.01, 8628.69, -26646.99, -35026.28, 0.00, 0.00, 0.00
183, -14969.50, 33380.41, -26433.15, -36967.41, -20649.55, 8602.96, -26648.80, -35010.25, 0.00, 0.00, 0.00
185, -14971.20, 33374.59, -26424.32, -36946.56, -20618.46, 8624.51, -26600.63, -34979.50, 0.00, 0.00, 0.00
187, -14991.29, 33363.17, -26438.51, -36977.54, -20628.74, 8611.66, -26609.01, -34980.19, 0.00, 0.00, 0.00
189, -14983.49, 33368.25, -26417.10, -36951.05, -20609.69, 8581.57, -26576.47, -34956.32, 0.00, 0.00, 0.00
191, -14997.44, 33366.91, -26439.65, -36981.32, -20645.28, 8679.94, -26621.87, -35000.62, 0.00, 0.00, 0.00
193, -14969.83, 33377.30, -26409.01, -36942.87, -20632.49, 8609.31, -26607.92, -34984.10, 0.00, 0.00, 0.00
195, -14994.87, 33365.59, -26425.21, -36974.50, -20666.89, 8730.79, -26659.01, -35034.17, 0.00, 0.00, 0.00
197, -14965.30, 33379.42, -26376.67, -36937.08, -20639.38, 8565.55, -26623.27, -35000.98, 0.00, 0.00, 0.00
199, -15019.17, 33343.97, -26425.19, -36993.16, -20681.11, 8713.85, -26687.63, -35066.24, 0.00, 0.00, 0.00
201, -14977.21, 33367.98, -26381.25, -36954.70, -20629.79, 8490.96, -26636.82, -35015.19, 0.00, 0.00, 0.00
203, -15019.70, 33341.52, -26421.33, -36985.48, -20654.11, 8642.19, -26671.31, -35047.55, 0.00, 0.00, 0.00
205, -15014.45, 33337.36, -26403.24, -36963.13, -20629.01, 8474.73, -26639.01, -35007.84, 0.00, 0.00, 0.00
207, -15041.99, 33331.05, -26429.08, -36982.01, -20645.32, 8679.72, -26658.23, -35022.07, 0.00, 0.00, 0.00
209, -15026.25, 33332.46, -26398.95, -36965.87, -20617.49, 8504.17, -26621.17, -34972.97, 0.00, 0.00, 0.00
211, -15062.50, 33312.28, -26428.54, -36992.74, -20631.42, 8719.68, -26618.22, -34992.77, 0.00, 0.00, 0.00
213, -15063.20, 33297.23, -26435.27, -37005.57, -20628.74, 8534.59, -26617.66, -34986.89, 0.00, 0.00, 0.00
215, -15085.01, 33292.90, -26443.81, -36999.64, -20613.81, 8723.73, -26599.36, -34995.72, 0.00, 0.00, 0.00
217, -15047.55, 33316.91, -26419.47, -36977.27, -20602.47, 8558.77, -26596.90, -34973.46, 0.00, 0.00, 0.00
219, -15049.67, 33327.55, -26425.77, -36970.77, -20607.79, 8736.16, -26610.47, -35000.62, 0.00, 0.00, 0.00
221, -15044.49, 33326.52, -26432.10, -36986.86, -20639.09, 8574.67, -26632.19, -35023.64, 0.00, 0.00, 0.00
223, -15039.86, 33340.09, -26432.93, -36960.87, -20634.84, 8699.72, -26624.68, -35045.68, 0.00, 0.00, 0.00
225, -15013.55, 33358.32, -26435.12, -36954.63, -20642.15, 8553.41, -26652.40, -35045.12, 0.00, 0.00, 0.00
227, -15031.95, 33350.21, -26461.94, -36939.59, -20654.13, 8617.09, -26639.50, -35056.41, 0.00, 0.00, 0.00
229, -15010.29, 33377.99, -26462.70, -36926.40, -20652.03, 8550.50, -26654.28, -35043.82, 0.00, 0.00, 0.00
231, -15004.01, 33385.08, -26459.08, -36895.02, -20634.59, 8536.09, -26623.45, -35025.56, 0.00, 0.00, 0.00
233, -15010.81, 33385.41, -26478.81, -36916.30, -20648.92, 8547.13, -26639.70, -35027.17, 0.00, 0.00, 0.00
235, -15007.63, 33391.16, -26474.59, -36894.23, -20632.02, 8523.90, -26605.08, -35004.84, 0.00, 0.00, 0.00
237, -15045.34, 33367.87, -26509.08, -36942.29, -20642.37, 8564.36, -26623.36, -35024.22, 0.00, 0.00, 0.00
239, -15023.05, 33375.09, -26471.53, -36910.21, -20596.75, 8498.49, -26566.88, -34974.96, 0.00, 0.00, 0.00
241, -15054.84, 33362.79, -26505.95, -36953.09, -20624.18, 8602.07, -26603.76, -35010.79, 0.00, 0.00, 0.00
243, -15019.97, 33379.98, -26473.36, -36915.40, -20604.04, 8457.65, -26577.36, -34985.91, 0.00, 0.00, 0.00
245, -15052.76, 33367.58, -26510.15, -36954.36, -20649.03, 8613.45, -26640.73, -35051.58, 0.00, 0.00, 0.00
247, -15003.29, 33398.87, -26463.82, -36910.98, -20620.98, 8477.88, -26607.34, -35022.12, 0.00, 0.00, 0.00
249, -15014.20, 33411.12, -26484.25, -36925.82, -20655.80, 8643.67, -26649.58, -35069.02, 0.00, 0.00, 0.00
251, -14967.87, 33446.39, -26446.79, -36883.84, -20634.79, 8444.89, -26628.30, -35031.57, 0.00, 0.00, 0.00
253, -15007.92, 33428.22, -26490.26, -36914.51, -20683.99, 8634.84, -26682.42, -35084.39, 0.00, 0.00, 0.00
255, -14966.75, 33453.21, -26448.01, -36874.88, -20649.99, 8479.47, -26634.38, -35030.32, 0.00, 0.00, 0.00
1, -14997.06, 33444.94, -26470.70, -36897.23, -20651.42, 8705.51, -26640.80, -35044.83, 0.00, 0.00, 0.00
3, -15008.30, 33423.32, -26480.09, -36923.85, -20658.24, 8547.40, -26645.54, -35032.54, 0.00, 0.00, 0.00
5, -15051.98, 33394.82, -26511.56, -36956.02, -20659.92, 8759.38, -26640.08, -35053.59, 0.00, 0.00, 0.00
7, -15026.00, 33404.61, -26487.58, -36947.99, -20637.16, 8572.99, -26619.36, -35007.88, 0.00, 0.00, 0.00
9, -15048.56, 33390.55, -26502.19, -36954.18, -20630.30, 8669.88, -26606.09, -35020.58, 0.00, 0.00, 0.00
11, -15025.33, 33403.90, -26492.83, -36958.61, -20629.07, 8478.13, -26612.68, -35011.21, 0.00, 0.00, 0.00
13, -15034.23, 33407.09, -26502.28, -36954.68, -20628.22, 8565.72, -26601.46, -35026.81, 0.00, 0.00, 0.00
15, -15005.02, 33432.75, -26489.30, -36950.56, -20629.79, 8445.56, -26613.77, -35022.59, 0.00, 0.00, 0.00
17, -15014.61, 33429.34, -26489.57, -36941.31, -20642.80, 8555.02, -26621.64, -35044.32, 0.00, 0.00, 0.00
19, -14991.25, 33455.40, -26468.02, -36930.89, -20658.26, 8485.97, -26639.84, -35043.49, 0.00, 0.00, 0.00
21, -14996.46, 33451.48, -26466.97, -36917.23, -20657.06, 8526.65, -26633.94, -35054.48, 0.00, 0.00, 0.00
23, -14961.56, 33491.70, -26442.65, -36903.64, -20649.81, 8512.50, -26633.91, -35034.10, 0.00, 0.00, 0.00
25, -14982.31, 33468.45, -26453.09, -36905.93, -20645.05, 8504.57, -26627.48, -35035.26, 0.00, 0.00, 0.00
27, -15015.14, 33441.32, -26489.25, -36952.42, -20658.67, 8533.54, -26657.11, -35060.27, 0.00, 0.00, 0.00
29, -14999.34, 33454.10, -26466.63, -36924.16, -20620.62, 8463.11, -26613.39, -35018.63, 0.00, 0.00, 0.00
31, -15025.87, 33439.24, -26493.90, -36962.72, -20642.21, 8560.23, -26635.41, -35030.03, 0.00, 0.00, 0.00
33, -15025.83, 33428.87, -26484.58, -36945.82, -20626.97, 8434.23, -26611.32, -34995.72, 0.00, 0.00, 0.00
35, -15037.90, 33427.55, -26500.72, -36969.54, -20634.44, 8520.69, -26627.05, -35006.12, 0.00, 0.00, 0.00
37, -15031.23, 33425.16, -26494.46, -36965.67, -20622.37, 8374.51, -26610.35, -34999.79, 0.00, 0.00, 0.00
39, -15038.75, 33430.88, -26508.99, -36988.18, -20651.13, 8544.40, -26630.85, -35033.95, 0.00, 0.00, 0.00
41, -15010.18, 33451.80, -26481.79, -36959.05, -20637.74, 8361.74, -26618.54, -35012.93, 0.00, 0.00, 0.00
43, -15035.93, 33446.61, -26513.91, -36985.34, -20672.88, 8551.75, -26653.78, -35064.95, 0.00, 0.00, 0.00
45, -14996.39, 33471.87, -26474.52, -36951.21, -20641.19, 8327.83, -26641.33, -35032.83, 0.00, 0.00, 0.00
47, -15017.49, 33468.79, -26498.93, -36960.64, -20667.00, 8483.96, -26663.22, -35067.74, 0.00, 0.00, 0.00
49, -14998.56, 33479.61, -26478.63, -36937.44, -20657.46, 8305.26, -26645.56, -35039.24, 0.00, 0.00, 0.00
51, -15012.71, 33480.97, -26483.51, -36938.94, -20654.33, 8478.80, -26649.00, -35063.67, 0.00, 0.00, 0.00
53, -14992.07, 33488.63, -26455.79, -36926.09, -20637.14, 8295.20, -26632.95, -35029.83, 0.00, 0.00, 0.00
55, -15014.81, 33478.24, -26471.97, -36923.76, -20631.73, 8513.24, -26622.83, -35033.39, 0.00, 0.00, 0.00
57, -14998.60, 33483.43, -26455.90, -36923.05, -20617.88, 8383.56, -26609.01, -35001.67, 0.00, 0.00, 0.00
59, -15039.62, 33451.22, -26476.80, -36937.42, -20627.33, 8534.43, -26604.92, -35016.35, 0.00, 0.00, 0.00
61, -15023.34, 33462.97, -26463.84, -36947.68, -20630.28, 8408.12, -26602.58, -34994.43, 0.00, 0.00, 0.00
63, -15047.82, 33443.44, -26482.10, -36962.72, -20636.54, 8528.17, -26603.02, -35016.40, 0.00, 0.00, 0.00
65, -15028.35, 33461.10, -26479.24, -36977.29, -20639.35, 8464.47, -26620.17, -35018.23, 0.00, 0.00, 0.00
67, -15041.49, 33443.71, -26464.58, -36955.25, -20617.43, 8492.57, -26602.96, -35028.49, 0.00, 0.00, 0.00
69, -15023.70, 33458.28, -26459.23, -36972.51, -20630.55, 8439.97, -26630.05, -35040.14, 0.00, 0.00, 0.00
71, -15029.83, 33443.35, -26460.11, -36966.25, -20631.15, 8437.18, -26631.39, -35049.25, 0.00, 0.00, 0.00
73, -15033.54, 33446.95, -26457.80, -36982.34, -20636.40, 8459.44, -26646.81, -35052.59, 0.00, 0.00, 0.00
75, -15031.57, 33437.85, -26455.90, -36970.97, -20630.90, 8406.74, -26631.57, -35047.24, 0.00, 0.00, 0.00
77, -15060.74, 33415.36, -26485.41, -37014.96, -20669.35, 8486.98, -26675.22, -35079.81, 0.00, 0.00, 0.00
79, -15041.09, 33417.87, -26448.44, -36975.30, -20622.95, 8388.48, -26623.10, -35033.21, 0.00, 0.00, 0.00
81, -15059.29, 33406.76, -26466.07, -37002.17, -20630.75, 8541.18, -26640.02, -35042.57, 0.00, 0.00, 0.00
83, -15033.16, 33420.48, -26437.44, -36976.54, -20598.12, 8396.92, -26602.91, -35004.86, 0.00, 0.00, 0.00
85, -15088.90, 33381.46, -26468.96, -37011.89, -20636.92, 8574.49, -26642.07, -35039.64, 0.00, 0.00, 0.00
87, -15054.01, 33398.29, -26427.18, -36975.08, -20602.41, 8428.69, -26591.49, -34988.05, 0.00, 0.00, 0.00
89, -15073.41, 33389.46, -26452.80, -37017.91, -20635.91, 8620.73, -26625.93, -35024.89, 0.00, 0.00, 0.00
91, -15007.70, 33427.68, -26416.52, -37002.48, -20619.51, 8431.64, -26619.94, -35010.23, 0.00, 0.00, 0.00
93, -15037.92, 33417.11, -26444.10, -37035.25, -20648.72, 8627.35, -26660.29, -35069.26, 0.00, 0.00, 0.00
95, -14987.54, 33446.99, -26415.42, -37019.70, -20633.10, 8444.35, -26653.96, -35050.71, 0.00, 0.00, 0.00
97, -15015.61, 33446.55, -26451.19, -37046.88, -20662.02, 8673.19, -26690.55, -35099.61, 0.00, 0.00, 0.00
99, -14951.66, 33492.19, -26392.78, -36997.84, -20615.77, 8505.71, -26650.01, -35034.77, 0.00, 0.00, 0.00
101, -14970.86, 33492.66, -26426.60, -37015.20, -20638.79, 8686.20, -26661.96, -35070.76, 0.00, 0.00, 0.00
103, -14928.93, 33533.34, -26399.06, -37008.00, -20616.89, 8528.60, -26652.82, -35039.46, 0.00, 0.00, 0.00
105, -14922.29, 33542.12, -26407.56, -37007.87, -20615.04, 8695.83, -26648.42, -35057.30, 0.00, 0.00, 0.00
107, -14889.97, 33576.30, -26387.82, -37009.95, -20603.30, 8553.07, -26637.85, -35037.36, 0.00, 0.00, 0.00
109, -14877.68, 33590.40, -26373.54, -36980.80, -20589.78, 8649.39, -26615.92, -35029.30, 0.00, 0.00, 0.00
111, -14849.98, 33634.08, -26357.67, -36983.11, -20589.96, 8539.13, -26608.88, -35000.68, 0.00, 0.00, 0.00
113, -14852.67, 33636.27, -26356.37, -36972.18, -20590.38, 8620.49, -26600.99, -34993.49, 0.00, 0.00, 0.00
115, -14850.52, 33647.15, -26380.44, -37016.30, -20626.26, 8599.03, -26635.52, -35004.82, 0.00, 0.00, 0.00
117, -14828.62, 33663.89, -26363.12, -36986.70, -20613.49, 8614.34, -26606.26, -34985.62, 0.00, 0.00, 0.00
119, -14822.18, 33684.39, -26374.01, -36999.47, -20629.90, 8576.74, -26647.23, -34999.32, 0.00, 0.00, 0.00
121, -14808.34, 33697.00, -26373.96, -36981.12, -20617.00, 8543.37, -26634.65, -35010.50, 0.00, 0.00, 0.00
123, -14791.96, 33731.96, -26369.74, -36978.50, -20618.99, 8576.83, -26651.10, -35029.59, 0.00, 0.00, 0.00
125, -14772.31, 33746.98, -26351.32, -36958.27, -20598.45, 8522.59, -26630.18, -35023.91, 0.00, 0.00, 0.00
127, -14776.98, 33763.11, -26368.44, -36987.53, -20616.02, 8613.74, -26652.71, -35050.44, 0.00, 0.00, 0.00
129, -14764.47, 33769.04, -26356.93, -36969.25, -20598.79, 8467.94, -26629.26, -35035.20, 0.00, 0.00, 0.00
131, -14777.77, 33771.43, -26379.19, -36992.54, -20608.71, 8634.23, -26637.67, -35059.31, 0.00, 0.00, 0.00
133, -14735.99, 33800.66, -26337.15, -36950.27, -20563.29, 8453.07, -26587.53, -35002.03, 0.00, 0.00, 0.00
135, -14774.99, 33778.92, -26368.96, -36982.97, -20586.27, 8637.45, -26620.64, -35032.63, 0.00, 0.00, 0.00
137, -14739.46, 33798.81, -26341.66, -36952.28, -20574.49, 8505.11, -26582.95, -34979.27, 0.00, 0.00, 0.00
139, -14763.13, 33793.60, -26371.06, -36975.08, -20596.60, 8710.99, -26595.29, -34989.17, 0.00, 0.00, 0.00
141, -14732.08, 33817.18, -26354.20, -36955.52, -20591.37, 8525.27, -26588.88, -34961.28, 0.00, 0.00, 0.00
143, -14759.75, 33812.11, -26385.12, -36972.49, -20627.04, 8734.01, -26639.57, -35014.70, 0.00, 0.00, 0.00
145, -14723.92, 33850.20, -26357.22, -36952.93, -20604.93, 8556.99, -26618.78, -34992.79, 0.00, 0.00, 0.00
147, -14720.55, 33857.66, -26354.61, -36937.42, -20605.42, 8722.57, -26611.40, -35006.54, 0.00, 0.00, 0.00
149, -14689.95, 33884.33, -26339.72, -36931.16, -20600.98, 8524.87, -26615.52, -34991.68, 0.00, 0.00, 0.00
151, -14730.65, 33863.14, -26376.62, -36955.61, -20621.41, 8713.00, -26631.99, -35030.01, 0.00, 0.00, 0.00
153, -14708.21, 33875.03, -26357.89, -36950.36, -20613.87, 8556.56, -26623.52, -35001.85, 0.00, 0.00, 0.00
155, -14730.87, 33866.45, -26371.32, -36952.98, -20605.38, 8682.87, -26603.74, -35007.79, 0.00, 0.00, 0.00
157, -14724.23, 33867.68, -26373.52, -36971.62, -20622.77, 8525.87, -26624.77, -35008.91, 0.00, 0.00, 0.00
159, -14707.54, 33897.85, -26359.88, -36933.93, -20602.99, 8587.96, -26595.29, -34990.34, 0.00, 0.00, 0.00
161, -14693.66, 33909.29, -26343.61, -36944.19, -20589.11, 8534.66, -26599.18, -34977.21, 0.00, 0.00, 0.00
163, -14686.75, 33917.79, -26352.37, -36936.52, -20608.40, 8604.37, -26610.38, -34989.64, 0.00, 0.00, 0.00
165, -14692.05, 33916.22, -26360.84, -36966.81, -20612.02, 8580.79, -26622.16, -34996.33, 0.00, 0.00, 0.00
167, -14669.34, 33942.33, -26326.51, -36921.59, -20589.96, 8572.90, -26591.78, -34970.29, 0.00, 0.00, 0.00
169, -14674.19, 33950.02, -26341.66, -36947.52, -20622.37, 8637.21, -26633.76, -34992.53, 0.00, 0.00, 0.00
171, -14663.24, 33956.48, -26317.84, -36913.43, -20595.19, 8560.23, -26594.71, -34975.09, 0.00, 0.00, 0.00
173, -14674.01, 33962.20, -26330.89, -36932.34, -20615.21, 8661.14, -26636.95, -34995.75, 0.00, 0.00, 0.00
175, -14656.98, 33967.83, -26309.43, -36910.89, -20597.56, 8567.94, -26601.57, -34967.09, 0.00, 0.00, 0.00
177, -14680.45, 33967.57, -26336.30, -36939.65, -20627.80, 8639.93, -26622.96, -34993.64, 0.00, 0.00, 0.00
179, -14657.09, 33974.36, -26307.64, -36916.90, -20584.32, 8484.25, -26592.12, -34956.36, 0.00, 0.00, 0.00
181, -14667.53, 33982.47, -26320.90, -36933.42, -20580.66, 8658.04, -26595.09, -34982.04, 0.00, 0.00, 0.00
183, -14633.89, 34003.86, -26293.00, -36896.00, -20561.48, 8501.66, -26578.55, -34949.01, 0.00, 0.00, 0.00
185, -14655.84, 33999.53, -26323.45, -36916.43, -20595.90, 8704.06, -26606.49, -34987.21, 0.00, 0.00, 0.00
187, -14631.38, 34009.68, -26316.41, -36898.91, -20596.08, 8490.78, -26594.80, -34960.41, 0.00, 0.00, 0.00
189, -14666.23, 33989.94, -26360.84, -36920.34, -20605.09, 8691.27, -26621.13, -35004.35, 0.00, 0.00, 0.00
191, -14631.03, 34010.52, -26342.58, -36885.74, -20584.48, 8490.58, -26596.76, -34965.44, 0.00, 0.00, 0.00
193, -14677.16, 33980.39, -26393.10, -36906.77, -20611.48, 8654.44, -26608.50, -35011.23, 0.00, 0.00, 0.00
195, -14647.70, 33993.79, -26381.85, -36888.13, -20599.43, 8485.55, -26590.73, -34979.50, 0.00, 0.00, 0.00
197, -14662.23, 33994.39, -26406.55, -36888.34, -20614.43, 8683.50, -26602.42, -35003.84, 0.00, 0.00, 0.00
199, -14650.47, 33996.31, -26401.14, -36880.60, -20622.32, 8538.32, -26601.14, -34990.89, 0.00, 0.00, 0.00
