%OpenBCI Raw EEG Data
%
%Sample Rate = 250.0 Hz
%First Column = SampleIndex
%Other Columns = EEG data in microvolts followed by Accel Data (in G) interleaved with Aux Data
0, -6552.73, 48967.60, -5005.96, -19624.45, 212.01, -17464.85, -2485.51, -19503.48, -0.03, 0.45, 0.19
1, -6543.74, 48903.38, -4995.70, -19615.20, 212.32, -17416.46, -2475.61, -19500.13, 0.00, 0.00, 0.00
2, -6556.35, 48939.52, -5002.59, -19628.21, 201.23, -17387.67, -2490.79, -19521.46, 0.00, 0.00, 0.00
3, -6541.42, 49025.38, -4999.86, -19620.16, 199.82, -17423.32, -2508.25, -19522.62, 0.00, 0.00, 0.00
4, -6538.94, 49007.14, -5008.35, -19616.83, 183.57, -17457.47, -2531.04, -19529.63, 0.00, 0.00, 0.00
5, -6529.39, 48925.38, -4990.65, -19599.66, 189.74, -17430.61, -2519.62, -19517.36, 0.00, 0.00, 0.00
6, -6531.58, 48932.06, -4977.96, -19598.23, 195.15, -17381.30, -2513.27, -19522.82, 0.00, 0.00, 0.00
7, -6531.85, 49030.88, -4980.88, -19607.55, 187.13, -17410.96, -2531.09, -19535.94, -0.05, 0.91, 0.38
8, -6519.27, 49025.27, -4974.56, -19596.02, 184.78, -17456.76, -2535.00, -19516.80, 0.00, 0.00, 0.00
9, -6518.82, 48939.59, -4969.22, -19586.65, 193.14, -17425.35, -2509.74, -19496.62, 0.00, 0.00, 0.00
10, -6537.04, 48925.04, -4967.65, -19592.58, 205.03, -17363.62, -2485.16, -19495.35, 0.00, 0.00, 0.00
11, -6549.19, 49011.00, -4978.25, -19607.11, 203.85, -17380.49, -2498.30, -19505.43, 0.00, 0.00, 0.00
12, -6530.96, 49023.32, -4981.67, -19596.22, 202.46, -17424.06, -2508.51, -19485.47, 0.00, 0.00, 0.00
13, -6528.36, 48949.00, -4984.98, -19594.41, 199.85, -17404.12, -2498.97, -19474.27, 0.00, 0.00, 0.00
14, -6548.50, 48906.24, -4994.81, -19611.06, 203.83, -17365.47, -2495.33, -19491.66, 0.00, 0.00, 0.00
15, -6547.76, 48976.56, -4998.36, -19620.63, 209.01, -17373.27, -2491.08, -19495.39, 0.00, 0.00, 0.00
16, -6536.52, 49019.00, -5004.62, -19623.04, 200.85, -17418.80, -2490.57, -19482.63, 0.00, 0.00, 0.00
17, -6533.95, 48942.90, -5009.83, -19622.30, 204.23, -17424.41, -2484.55, -19476.97, -0.05, 0.92, 0.38
18, -6553.51, 48883.35, -5018.44, -19637.59, 208.56, -17388.45, -2473.02, -19486.18, 0.00, 0.00, 0.00
19, -6554.81, 48932.41, -5018.64, -19648.14, 211.74, -17382.59, -2471.81, -19493.87, 0.00, 0.00, 0.00
20, -6546.07, 48992.38, -5019.51, -19646.82, 206.11, -17435.97, -2476.69, -19494.34, 0.00, 0.00, 0.00
21, -6550.47, 48932.57, -5027.09, -19645.98, 201.93, -17461.21, -2475.34, -19492.84, 0.00, 0.00, 0.00
22, -6555.68, 48852.93, -5021.52, -19642.09, 216.23, -17430.16, -2454.98, -19488.98, 0.00, 0.00, 0.00
23, -6557.85, 48894.42, -5013.07, -19643.83, 234.72, -17406.91, -2446.20, -19496.76, 0.00, 0.00, 0.00
24, -6562.70, 48977.43, -5018.19, -19645.30, 228.64, -17438.32, -2465.35, -19505.85, 0.00, 0.00, 0.00
25, -6565.56, 48933.24, -5025.88, -19637.66, 212.07, -17473.03, -2478.72, -19507.13, 0.00, 0.00, 0.00
26, -6573.87, 48852.17, -5022.84, -19633.30, 205.93, -17443.77, -2474.90, -19509.61, 0.00, 0.00, 0.00
27, -6580.02, 48856.69, -5014.59, -19634.96, 209.37, -17411.03, -2474.38, -19518.75, -0.05, 0.92, 0.37
28, -6577.34, 48935.37, -5012.49, -19635.76, 205.61, -17438.85, -2491.01, -19523.44, 0.00, 0.00, 0.00
29, -6572.35, 48905.59, -5010.86, -19624.74, 196.56, -17476.07, -2500.04, -19515.02, 0.00, 0.00, 0.00
30, -6569.42, 48821.21, -4999.28, -19613.37, 198.15, -17441.89, -2487.88, -19504.20, 0.00, 0.00, 0.00
31, -6578.72, 48817.06, -4995.30, -19617.37, 204.27, -17397.12, -2483.66, -19508.04, 0.00, 0.00, 0.00
32, -6572.13, 48898.93, -4991.61, -19614.15, 203.47, -17413.93, -2494.77, -19507.62, 0.00, 0.00, 0.00
33, -6574.41, 48897.34, -4998.48, -19614.04, 190.03, -17461.67, -2507.55, -19502.10, 0.00, 0.00, 0.00
34, -6578.05, 48805.32, -4993.29, -19604.89, 188.07, -17454.10, -2498.79, -19490.54, 0.00, 0.00, 0.00
35, -6582.90, 48777.81, -4988.15, -19616.36, 197.28, -17406.91, -2489.63, -19495.95, 0.00, 0.00, 0.00
36, -6586.68, 48860.78, -4996.78, -19633.19, 196.56, -17409.88, -2509.52, -19511.57, 0.00, 0.00, 0.00
37, -6580.17, 48876.34, -4995.53, -19625.17, 197.50, -17456.29, -2518.17, -19495.37, -0.05, 0.91, 0.37
38, -6587.60, 48798.50, -5002.10, -19624.23, 187.44, -17446.70, -2508.00, -19483.72, 0.00, 0.00, 0.00
39, -6602.35, 48751.07, -5009.34, -19637.21, 176.15, -17398.51, -2490.12, -19489.80, 0.00, 0.00, 0.00
40, -6596.29, 48803.20, -5003.08, -19636.12, 198.37, -17398.49, -2482.16, -19480.42, 0.00, 0.00, 0.00
41, -6602.66, 48846.09, -5015.26, -19647.94, 194.64, -17453.85, -2500.60, -19486.09, 0.00, 0.00, 0.00
42, -6604.29, 48772.02, -5023.31, -19651.07, 191.35, -17466.86, -2498.46, -19484.06, 0.00, 0.00, 0.00
43, -6608.54, 48716.30, -5020.60, -19653.58, 202.46, -17420.41, -2482.05, -19488.80, 0.00, 0.00, 0.00
44, -6613.37, 48773.54, -5024.54, -19664.66, 205.26, -17409.33, -2486.21, -19501.96, 0.00, 0.00, 0.00
45, -6613.55, 48836.30, -5037.81, -19676.20, 190.79, -17483.02, -2506.61, -19510.21, 0.00, 0.00, 0.00
46, -6598.28, 48776.60, -5030.04, -19659.83, 196.11, -17514.42, -2493.31, -19490.14, 0.00, 0.00, 0.00
47, -6600.02, 48703.15, -5025.28, -19655.83, 211.81, -17470.21, -2469.22, -19490.07, -0.05, 0.92, 0.37
48, -6604.52, 48744.93, -5028.49, -19666.45, 222.33, -17437.65, -2464.08, -19505.83, 0.00, 0.00, 0.00
49, -6589.61, 48823.72, -5028.61, -19662.14, 215.65, -17474.30, -2479.86, -19504.58, 0.00, 0.00, 0.00
50, -6568.69, 48785.56, -5018.10, -19640.30, 215.22, -17494.42, -2478.85, -19484.57, 0.00, 0.00, 0.00
51, -6567.55, 48722.55, -5022.41, -19642.69, 205.55, -17463.57, -2478.61, -19494.07, 0.00, 0.00, 0.00
52, -6565.96, 48752.26, -5029.37, -19659.68, 187.49, -17440.87, -2491.48, -19520.89, 0.00, 0.00, 0.00
53, -6552.55, 48848.20, -5028.45, -19658.94, 174.43, -17470.68, -2512.87, -19529.75, 0.00, 0.00, 0.00
54, -6522.80, 48843.90, -5019.40, -19642.62, 170.23, -17511.70, -2522.01, -19512.16, 0.00, 0.00, 0.00
55, -6519.27, 48771.57, -5011.31, -19638.33, 173.32, -17485.12, -2515.33, -19508.96, 0.00, 0.00, 0.00
56, -6506.68, 48769.85, -4993.18, -19630.26, 197.12, -17416.37, -2494.72, -19504.62, 0.00, 0.00, 0.00
57, -6504.18, 48876.22, -4995.75, -19639.27, 193.32, -17418.63, -2506.84, -19520.27, -0.06, 0.91, 0.36
58, -6492.47, 48889.41, -4993.58, -19626.84, 181.36, -17449.60, -2514.48, -19510.70, 0.00, 0.00, 0.00
59, -6496.11, 48812.95, -4989.02, -19617.83, 182.79, -17420.14, -2500.36, -19497.78, 0.00, 0.00, 0.00
60, -6496.04, 48787.20, -4982.20, -19620.49, 195.73, -17361.98, -2488.26, -19500.73, 0.00, 0.00, 0.00
61, -6499.04, 48880.00, -4996.24, -19640.75, 187.60, -17370.48, -2508.69, -19527.98, 0.00, 0.00, 0.00
62, -6483.23, 48907.11, -4996.89, -19637.08, 178.88, -17421.13, -2520.72, -19520.20, 0.00, 0.00, 0.00
63, -6482.88, 48834.85, -4990.05, -19630.96, 181.56, -17398.15, -2514.77, -19510.52, 0.00, 0.00, 0.00
64, -6492.91, 48793.05, -4982.78, -19629.32, 192.47, -17331.23, -2498.21, -19507.66, 0.00, 0.00, 0.00
65, -6493.05, 48862.21, -4980.44, -19631.18, 196.14, -17321.77, -2497.41, -19510.59, 0.00, 0.00, 0.00
66, -6480.78, 48919.81, -4978.98, -19624.27, 198.55, -17368.96, -2501.54, -19505.49, 0.00, 0.00, 0.00
67, -6476.46, 48854.43, -4973.53, -19615.60, 201.79, -17380.52, -2485.94, -19496.46, -0.06, 0.91, 0.36
68, -6493.81, 48796.11, -4971.63, -19620.83, 206.71, -17330.25, -2472.82, -19499.13, 0.00, 0.00, 0.00
69, -6499.10, 48844.66, -4976.59, -19638.42, 205.73, -17327.52, -2476.95, -19516.98, 0.00, 0.00, 0.00
70, -6486.30, 48908.21, -4973.24, -19635.47, 196.61, -17380.31, -2483.03, -19514.99, 0.00, 0.00, 0.00
71, -6475.66, 48856.87, -4961.75, -19618.06, 204.38, -17397.28, -2475.95, -19499.73, 0.00, 0.00, 0.00
72, -6488.13, 48789.07, -4960.84, -19619.44, 211.72, -17356.80, -2462.22, -19501.49, 0.00, 0.00, 0.00
73, -6489.25, 48817.66, -4954.58, -19618.04, 218.60, -17332.30, -2454.38, -19508.40, 0.00, 0.00, 0.00
74, -6477.29, 48909.77, -4960.34, -19620.38, 201.70, -17366.84, -2478.58, -19517.63, 0.00, 0.00, 0.00
75, -6472.46, 48879.51, -4970.60, -19621.59, 179.89, -17399.94, -2506.32, -19520.36, 0.00, 0.00, 0.00
76, -6483.95, 48802.89, -4979.07, -19629.03, 174.01, -17380.40, -2515.17, -19533.57, 0.00, 0.00, 0.00
77, -6490.66, 48814.40, -4985.29, -19641.57, 173.83, -17363.44, -2515.76, -19554.13, -0.07, 0.91, 0.36
78, -6474.36, 48896.52, -4980.01, -19635.72, 174.48, -17398.37, -2523.24, -19553.22, 0.00, 0.00, 0.00
79, -6461.13, 48885.77, -4975.21, -19625.03, 170.88, -17433.80, -2532.05, -19541.84, 0.00, 0.00, 0.00
80, -6461.24, 48809.46, -4967.05, -19619.85, 177.63, -17402.22, -2523.98, -19536.34, 0.00, 0.00, 0.00
81, -6467.28, 48791.87, -4954.29, -19615.58, 192.49, -17363.95, -2497.41, -19535.04, 0.00, 0.00, 0.00
82, -6468.75, 48880.60, -4955.47, -19623.47, 188.22, -17391.71, -2500.42, -19548.88, 0.00, 0.00, 0.00
83, -6464.64, 48896.79, -4961.55, -19622.73, 175.15, -17447.41, -2517.90, -19548.66, 0.00, 0.00, 0.00
84, -6474.74, 48815.16, -4966.80, -19623.56, 175.86, -17437.76, -2512.20, -19537.03, 0.00, 0.00, 0.00
85, -6478.09, 48773.94, -4958.65, -19620.12, 196.11, -17374.10, -2487.77, -19518.30, 0.00, 0.00, 0.00
86, -6508.69, 48855.12, -4975.39, -19644.43, 185.16, -17363.55, -2503.35, -19536.41, 0.00, 0.00, 0.00
87, -6491.55, 48874.14, -4972.01, -19629.64, 178.43, -17413.24, -2505.88, -19509.99, -0.06, 0.91, 0.37
88, -6497.70, 48800.20, -4966.27, -19620.58, 182.37, -17387.06, -2486.74, -19489.71, 0.00, 0.00, 0.00
89, -6512.11, 48737.87, -4964.46, -19625.26, 185.70, -17341.67, -2473.94, -19494.79, 0.00, 0.00, 0.00
90, -6516.02, 48794.59, -4957.21, -19629.14, 197.99, -17329.57, -2462.47, -19502.39, 0.00, 0.00, 0.00
91, -6517.12, 48849.80, -4968.73, -19640.07, 193.50, -17394.62, -2479.93, -19515.42, 0.00, 0.00, 0.00
92, -6507.38, 48773.79, -4959.83, -19627.45, 198.22, -17418.85, -2471.07, -19504.53, 0.00, 0.00, 0.00
93, -6523.38, 48697.97, -4961.64, -19631.94, 199.27, -17382.75, -2464.61, -19515.46, 0.00, 0.00, 0.00
94, -6534.31, 48741.17, -4967.00, -19647.81, 202.46, -17364.94, -2467.21, -19533.32, 0.00, 0.00, 0.00
95, -6529.50, 48809.61, -4978.05, -19657.62, 189.92, -17428.44, -2484.33, -19540.92, 0.00, 0.00, 0.00
96, -6514.28, 48752.17, -4973.31, -19634.26, 192.87, -17459.26, -2476.06, -19519.64, 0.00, 0.00, 0.00
97, -6525.86, 48683.44, -4973.62, -19633.01, 204.43, -17409.26, -2460.06, -19516.78, -0.06, 0.91, 0.37
98, -6529.41, 48710.13, -4974.98, -19641.80, 200.41, -17371.89, -2463.48, -19531.45, 0.00, 0.00, 0.00
99, -6519.62, 48800.25, -4976.93, -19642.80, 189.52, -17405.95, -2490.23, -19540.83, 0.00, 0.00, 0.00
100, -6528.54, 48771.24, -4976.03, -19638.29, 183.82, -17442.00, -2505.72, -19535.16, 0.00, 0.00, 0.00
101, -6533.57, 48684.76, -4970.89, -19632.27, 186.15, -17414.78, -2493.54, -19532.90, 0.00, 0.00, 0.00
102, -6531.31, 48684.91, -4963.90, -19631.29, 191.76, -17373.36, -2487.57, -19541.17, 0.00, 0.00, 0.00
103, -6549.40, 48774.48, -4972.39, -19644.41, 187.22, -17401.59, -2511.55, -19555.00, 0.00, 0.00, 0.00
104, -6541.33, 48763.37, -4974.09, -19633.35, 179.35, -17446.74, -2525.61, -19544.23, 0.00, 0.00, 0.00
105, -6523.02, 48681.67, -4955.20, -19612.69, 189.30, -17416.68, -2505.05, -19520.02, 0.00, 0.00, 0.00
106, -6534.35, 48671.23, -4955.76, -19623.62, 194.26, -17373.05, -2497.63, -19525.81, 0.00, 0.00, 0.00
107, -6532.88, 48755.46, -4948.16, -19624.07, 202.04, -17375.66, -2494.88, -19520.16, -0.07, 0.91, 0.38
108, -6543.90, 48773.88, -4961.64, -19634.58, 188.98, -17424.82, -2507.33, -19520.29, 0.00, 0.00, 0.00
109, -6549.44, 48694.46, -4971.07, -19639.61, 174.92, -17423.68, -2516.56, -19513.65, 0.00, 0.00, 0.00
110, -6554.36, 48653.60, -4970.29, -19642.94, 179.44, -17371.31, -2505.25, -19510.48, 0.00, 0.00, 0.00
111, -6554.00, 48727.32, -4968.99, -19640.32, 187.29, -17361.05, -2492.69, -19504.85, 0.00, 0.00, 0.00
112, -6553.80, 48775.02, -4976.55, -19641.39, 182.41, -17408.79, -2496.60, -19494.83, 0.00, 0.00, 0.00
113, -6557.80, 48698.32, -4981.78, -19642.18, 184.40, -17419.03, -2491.82, -19485.15, 0.00, 0.00, 0.00
114, -6558.18, 48631.83, -4969.37, -19636.10, 207.96, -17377.34, -2463.36, -19475.48, 0.00, 0.00, 0.00
115, -6549.98, 48694.28, -4955.74, -19633.15, 229.80, -17363.04, -2448.12, -19477.85, 0.00, 0.00, 0.00
116, -6550.56, 48769.02, -4972.48, -19648.50, 215.11, -17413.53, -2464.82, -19493.27, 0.00, 0.00, 0.00
117, -6545.98, 48713.03, -4979.68, -19640.32, 203.91, -17435.08, -2464.97, -19487.01, -0.07, 0.92, 0.38
118, -6556.86, 48643.52, -4979.79, -19641.06, 207.94, -17393.99, -2445.95, -19490.41, 0.00, 0.00, 0.00
119, -6555.95, 48689.27, -4978.85, -19654.58, 211.29, -17365.61, -2444.25, -19507.95, 0.00, 0.00, 0.00
120, -6539.70, 48774.88, -4985.36, -19661.91, 206.89, -17426.27, -2470.81, -19521.59, 0.00, 0.00, 0.00
121, -6515.62, 48732.46, -4969.17, -19635.60, 214.80, -17458.30, -2470.20, -19501.16, 0.00, 0.00, 0.00
122, -6519.27, 48665.38, -4963.41, -19632.36, 218.44, -17412.01, -2459.72, -19507.28, 0.00, 0.00, 0.00
123, -6529.95, 48693.30, -4967.83, -19643.63, 215.22, -17380.80, -2468.86, -19529.99, 0.00, 0.00, 0.00
124, -6510.93, 48778.68, -4966.76, -19640.14, 210.82, -17424.70, -2491.10, -19536.36, 0.00, 0.00, 0.00
125, -6506.39, 48766.27, -4970.87, -19636.57, 198.62, -17465.54, -2506.52, -19536.50, 0.00, 0.00, 0.00
126, -6508.47, 48691.80, -4968.99, -19626.87, 194.57, -17441.07, -2498.12, -19532.12, 0.00, 0.00, 0.00
127, -6504.51, 48694.97, -4954.38, -19619.85, 204.43, -17392.38, -2478.12, -19530.53, -0.07, 0.91, 0.38
128, -6502.17, 48796.41, -4960.01, -19631.63, 195.06, -17403.98, -2495.75, -19541.71, 0.00, 0.00, 0.00
129, -6488.76, 48801.10, -4959.43, -19622.71, 185.56, -17448.35, -2509.43, -19532.00, 0.00, 0.00, 0.00
130, -6483.88, 48725.53, -4956.25, -19614.08, 190.01, -17424.66, -2498.05, -19521.57, 0.00, 0.00, 0.00
131, -6504.71, 48707.55, -4968.86, -19633.32, 193.95, -17378.97, -2495.77, -19536.68, 0.00, 0.00, 0.00
132, -6500.60, 48782.97, -4967.16, -19637.13, 201.23, -17381.77, -2500.69, -19533.81, 0.00, 0.00, 0.00
133, -6483.08, 48811.61, -4965.71, -19624.92, 199.91, -17421.11, -2500.24, -19515.46, 0.00, 0.00, 0.00
134, -6483.70, 48737.66, -4969.40, -19620.29, 196.05, -17412.84, -2486.50, -19500.31, 0.00, 0.00, 0.00
135, -6495.71, 48693.90, -4968.50, -19621.50, 213.48, -17352.13, -2462.76, -19493.13, 0.00, 0.00, 0.00
136, -6500.31, 48770.48, -4971.25, -19630.44, 227.25, -17336.26, -2460.06, -19497.07, 0.00, 0.00, 0.00
137, -6494.01, 48821.24, -4983.90, -19637.95, 216.63, -17394.82, -2470.74, -19496.73, -0.08, 0.91, 0.38
138, -6486.86, 48743.79, -4975.88, -19627.56, 222.42, -17407.00, -2453.01, -19473.98, 0.00, 0.00, 0.00
139, -6500.96, 48688.98, -4968.61, -19634.31, 234.29, -17357.94, -2431.24, -19471.41, 0.00, 0.00, 0.00
140, -6513.63, 48735.12, -4974.87, -19653.42, 237.44, -17361.13, -2432.34, -19488.02, 0.00, 0.00, 0.00
141, -6507.69, 48798.95, -4979.32, -19655.30, 228.86, -17405.55, -2440.36, -19486.43, 0.00, 0.00, 0.00
142, -6493.11, 48747.16, -4971.52, -19633.30, 227.34, -17403.38, -2423.58, -19465.31, 0.00, 0.00, 0.00
143, -6498.30, 48684.94, -4965.33, -19633.75, 237.11, -17352.46, -2399.84, -19472.24, 0.00, 0.00, 0.00
144, -6495.51, 48722.22, -4963.20, -19636.77, 230.89, -17342.16, -2405.00, -19489.22, 0.00, 0.00, 0.00
145, -6478.36, 48811.07, -4961.86, -19629.37, 213.41, -17385.25, -2436.14, -19501.45, 0.00, 0.00, 0.00
146, -6457.73, 48777.61, -4951.89, -19609.99, 211.18, -17416.59, -2452.37, -19494.88, 0.00, 0.00, 0.00
147, -6469.51, 48714.98, -4955.07, -19613.79, 200.03, -17387.11, -2457.04, -19510.93, -0.08, 0.90, 0.38
148, -6472.22, 48729.75, -4945.99, -19613.45, 202.35, -17363.30, -2459.94, -19521.72, 0.00, 0.00, 0.00
149, -6457.31, 48817.75, -4936.99, -19607.42, 199.96, -17392.74, -2476.60, -19530.02, 0.00, 0.00, 0.00
150, -6452.70, 48807.67, -4944.18, -19604.31, 186.19, -17436.37, -2495.39, -19531.89, 0.00, 0.00, 0.00
151, -6449.13, 48724.88, -4930.17, -19587.10, 196.65, -17410.35, -2473.82, -19516.85, 0.00, 0.00, 0.00
152, -6458.07, 48715.27, -4922.48, -19584.80, 203.42, -17358.83, -2457.46, -19521.88, 0.00, 0.00, 0.00
153, -6461.08, 48797.75, -4928.98, -19592.78, 200.63, -17371.82, -2473.20, -19534.04, 0.00, 0.00, 0.00
154, -6462.02, 48813.21, -4943.04, -19593.40, 194.62, -17407.61, -2491.39, -19532.03, 0.00, 0.00, 0.00
155, -6459.65, 48731.65, -4941.01, -19583.17, 201.97, -17394.89, -2479.95, -19515.38, 0.00, 0.00, 0.00
156, -6470.43, 48699.87, -4937.92, -19590.68, 215.67, -17349.18, -2465.40, -19516.09, 0.00, 0.00, 0.00
157, -6479.70, 48769.80, -4945.37, -19605.29, 213.71, -17364.98, -2474.52, -19522.55, -0.08, 0.90, 0.38
158, -6483.03, 48790.13, -4956.50, -19610.21, 202.48, -17414.60, -2494.25, -19519.29, 0.00, 0.00, 0.00
159, -6490.81, 48706.95, -4962.13, -19609.10, 197.48, -17411.76, -2489.29, -19503.28, 0.00, 0.00, 0.00
160, -6497.88, 48651.39, -4953.73, -19607.82, 223.72, -17358.10, -2462.16, -19490.92, 0.00, 0.00, 0.00
161, -6501.70, 48709.77, -4951.38, -19622.86, 240.59, -17361.87, -2459.79, -19494.39, 0.00, 0.00, 0.00
162, -6494.39, 48761.63, -4953.66, -19626.89, 239.01, -17404.95, -2455.43, -19484.48, 0.00, 0.00, 0.00
163, -6498.59, 48692.56, -4962.36, -19625.68, 236.46, -17406.46, -2443.27, -19476.08, 0.00, 0.00, 0.00
164, -6509.10, 48617.16, -4964.46, -19629.32, 243.54, -17364.20, -2426.80, -19476.30, 0.00, 0.00, 0.00
165, -6522.26, 48666.65, -4967.36, -19641.06, 258.90, -17346.00, -2415.87, -19483.21, 0.00, 0.00, 0.00
166, -6524.41, 48736.61, -4981.11, -19646.56, 243.95, -17412.05, -2436.38, -19490.81, 0.00, 0.00, 0.00
167, -6510.37, 48679.50, -4973.69, -19626.11, 236.17, -17441.45, -2427.69, -19465.22, -0.08, 0.91, 0.38
168, -6513.88, 48611.76, -4967.45, -19623.38, 240.55, -17382.57, -2402.41, -19460.46, 0.00, 0.00, 0.00
169, -6523.29, 48641.77, -4967.38, -19634.76, 253.42, -17349.11, -2398.86, -19476.84, 0.00, 0.00, 0.00
170, -6519.15, 48720.57, -4966.13, -19635.29, 247.90, -17388.81, -2426.59, -19485.87, 0.00, 0.00, 0.00
171, -6509.77, 48692.98, -4967.00, -19629.99, 229.71, -17424.97, -2442.49, -19483.43, 0.00, 0.00, 0.00
172, -6511.85, 48617.52, -4964.14, -19625.97, 226.02, -17402.60, -2439.60, -19484.64, 0.00, 0.00, 0.00
173, -6514.15, 48624.52, -4961.42, -19631.27, 227.12, -17373.61, -2440.45, -19498.86, 0.00, 0.00, 0.00
174, -6501.14, 48718.55, -4956.23, -19627.54, 221.15, -17399.87, -2457.46, -19507.15, 0.00, 0.00, 0.00
175, -6499.35, 48707.82, -4951.27, -19609.50, 213.15, -17436.46, -2472.95, -19496.29, 0.00, 0.00, 0.00
176, -6511.44, 48622.51, -4950.26, -19605.45, 210.58, -17431.25, -2471.14, -19494.32, 0.00, 0.00, 0.00
177, -6519.42, 48606.75, -4944.79, -19606.19, 220.79, -17389.52, -2460.64, -19501.63, -0.08, 0.90, 0.38
178, -6531.31, 48697.92, -4958.33, -19625.19, 205.90, -17403.09, -2483.68, -19530.26, 0.00, 0.00, 0.00
179, -6514.68, 48707.20, -4963.27, -19613.65, 194.88, -17461.90, -2493.31, -19520.47, 0.00, 0.00, 0.00
180, -6522.26, 48629.19, -4966.92, -19606.12, 190.91, -17443.59, -2476.19, -19510.17, 0.00, 0.00, 0.00
181, -6530.38, 48589.92, -4961.98, -19605.77, 208.90, -17397.30, -2454.96, -19505.45, 0.00, 0.00, 0.00
182, -6537.30, 48663.61, -4966.45, -19617.83, 216.32, -17402.08, -2463.03, -19512.25, 0.00, 0.00, 0.00
183, -6532.74, 48699.87, -4970.63, -19613.52, 220.75, -17439.86, -2473.42, -19499.04, 0.00, 0.00, 0.00
184, -6546.47, 48626.89, -4981.56, -19621.03, 219.70, -17434.99, -2476.19, -19490.88, 0.00, 0.00, 0.00
185, -6559.97, 48563.84, -4981.29, -19622.80, 231.30, -17393.68, -2453.01, -19481.04, 0.00, 0.00, 0.00
186, -6567.03, 48620.16, -4985.22, -19637.19, 235.19, -17382.91, -2452.14, -19491.55, 0.00, 0.00, 0.00
187, -6570.50, 48676.93, -4999.35, -19648.50, 223.72, -17434.52, -2463.90, -19495.68, -0.08, 0.90, 0.37
188, -6573.18, 48606.14, -5006.88, -19644.52, 218.11, -17453.38, -2453.48, -19481.62, 0.00, 0.00, 0.00
189, -6582.23, 48541.37, -5001.11, -19644.08, 232.19, -17403.92, -2414.68, -19473.96, 0.00, 0.00, 0.00
190, -6591.60, 48581.36, -5000.22, -19657.11, 245.94, -17382.21, -2402.07, -19482.41, 0.00, 0.00, 0.00
191, -6589.00, 48656.13, -5011.44, -19667.86, 240.46, -17428.12, -2427.87, -19495.46, 0.00, 0.00, 0.00
192, -6574.07, 48604.63, -5006.97, -19655.77, 236.28, -17464.29, -2433.14, -19482.25, 0.00, 0.00, 0.00
193, -6568.31, 48527.74, -4987.08, -19640.39, 249.71, -17417.93, -2411.02, -19469.13, 0.00, 0.00, 0.00
194, -6574.23, 48565.38, -4988.44, -19650.07, 242.99, -17389.70, -2412.00, -19492.67, 0.00, 0.00, 0.00
195, -6560.59, 48654.65, -4990.92, -19649.53, 222.51, -17437.58, -2430.53, -19499.73, 0.00, 0.00, 0.00
196, -6554.51, 48631.94, -5002.21, -19650.07, 193.28, -17482.57, -2454.82, -19503.33, 0.00, 0.00, 0.00
197, -6539.72, 48555.07, -4989.11, -19636.39, 201.12, -17448.80, -2444.83, -19493.22, -0.08, 0.92, 0.38
198, -6538.94, 48568.26, -4976.91, -19633.30, 215.05, -17410.20, -2435.98, -19497.98, 0.00, 0.00, 0.00
199, -6531.76, 48659.86, -4968.66, -19628.43, 215.25, -17434.81, -2450.29, -19503.10, 0.00, 0.00, 0.00
200, -6511.26, 48664.75, -4971.27, -19620.90, 209.55, -17479.51, -2473.27, -19507.06, 0.00, 0.00, 0.00
201, -6505.30, 48599.75, -4966.49, -19615.55, 201.32, -17462.95, -2474.76, -19510.28, 0.00, 0.00, 0.00
202, -6512.81, 48581.05, -4958.62, -19612.00, 204.36, -17419.29, -2468.37, -19517.36, 0.00, 0.00, 0.00
203, -6517.90, 48664.29, -4966.04, -19622.24, 194.64, -17438.43, -2482.54, -19532.65, 0.00, 0.00, 0.00
204, -6503.96, 48689.34, -4965.86, -19613.90, 193.83, -17481.84, -2485.94, -19521.68, 0.00, 0.00, 0.00
205, -6515.40, 48616.65, -4973.35, -19617.34, 195.00, -17469.21, -2476.71, -19515.91, 0.00, 0.00, 0.00
206, -6528.14, 48572.42, -4971.88, -19621.52, 202.08, -17413.15, -2463.16, -19513.65, 0.00, 0.00, 0.00
207, -6547.14, 48643.38, -4986.20, -19639.67, 197.48, -17405.79, -2474.03, -19528.43, -0.08, 0.91, 0.38
208, -6547.94, 48683.35, -5000.89, -19649.02, 187.31, -17464.40, -2491.91, -19528.63, 0.00, 0.00, 0.00
209, -6537.55, 48602.35, -5000.33, -19635.67, 188.78, -17465.92, -2479.64, -19505.00, 0.00, 0.00, 0.00
210, -6548.57, 48543.76, -4999.21, -19637.28, 202.80, -17411.81, -2457.46, -19497.02, 0.00, 0.00, 0.00
211, -6557.31, 48600.02, -5002.66, -19646.09, 208.07, -17393.21, -2453.48, -19501.67, 0.00, 0.00, 0.00
212, -6540.59, 48662.85, -5003.91, -19641.95, 208.79, -17433.49, -2454.87, -19490.25, 0.00, 0.00, 0.00
213, -6540.52, 48608.80, -5002.01, -19633.53, 208.27, -17451.84, -2439.76, -19468.30, 0.00, 0.00, 0.00
214, -6558.36, 48541.46, -5003.37, -19636.41, 222.20, -17395.83, -2418.88, -19465.06, 0.00, 0.00, 0.00
215, -6567.88, 48574.05, -5001.67, -19647.43, 242.49, -17368.73, -2413.61, -19473.78, 0.00, 0.00, 0.00
216, -6563.70, 48651.23, -5004.26, -19653.89, 241.64, -17402.42, -2420.67, -19472.77, 0.00, 0.00, 0.00
217, -6554.11, 48603.62, -5006.16, -19643.88, 239.74, -17433.62, -2408.33, -19453.39, -0.08, 0.90, 0.38
218, -6554.81, 48526.21, -5000.85, -19637.21, 247.05, -17392.25, -2383.01, -19446.96, 0.00, 0.00, 0.00
219, -6567.59, 48544.37, -5000.00, -19645.21, 243.81, -17352.04, -2380.73, -19463.09, 0.00, 0.00, 0.00
220, -6573.04, 48638.94, -5014.66, -19661.24, 218.38, -17390.15, -2423.02, -19479.21, 0.00, 0.00, 0.00
221, -6550.13, 48619.09, -5009.63, -19645.66, 216.54, -17435.95, -2436.27, -19464.37, 0.00, 0.00, 0.00
222, -6553.02, 48544.32, -5006.72, -19639.83, 226.71, -17401.03, -2424.54, -19460.75, 0.00, 0.00, 0.00
223, -6556.64, 48542.24, -4996.64, -19639.94, 225.13, -17361.38, -2421.23, -19469.08, 0.00, 0.00, 0.00
224, -6544.39, 48632.59, -4984.06, -19636.03, 221.22, -17384.67, -2435.33, -19477.47, 0.00, 0.00, 0.00
225, -6522.78, 48641.37, -4976.01, -19616.76, 218.69, -17426.63, -2444.25, -19467.68, 0.00, 0.00, 0.00
226, -6506.37, 48561.02, -4959.00, -19595.86, 223.61, -17404.65, -2432.94, -19456.81, 0.00, 0.00, 0.00
227, -6520.14, 48547.68, -4960.59, -19608.09, 225.15, -17363.93, -2429.95, -19482.61, -0.07, 0.90, 0.38
228, -6529.28, 48635.81, -4976.53, -19628.52, 216.39, -17396.05, -2447.47, -19511.33, 0.00, 0.00, 0.00
229, -6523.27, 48655.07, -4987.01, -19632.07, 206.60, -17464.67, -2471.63, -19516.51, 0.00, 0.00, 0.00
230, -6527.85, 48574.70, -4991.68, -19631.36, 205.32, -17461.99, -2476.04, -19510.68, 0.00, 0.00, 0.00
231, -6541.62, 48530.75, -4994.05, -19638.85, 205.55, -17416.54, -2468.68, -19512.63, 0.00, 0.00, 0.00
232, -6548.12, 48591.13, -4999.28, -19651.70, 205.84, -17421.55, -2475.39, -19521.59, 0.00, 0.00, 0.00
233, -6546.65, 48640.84, -5013.76, -19659.86, 200.85, -17472.11, -2490.23, -19528.09, 0.00, 0.00, 0.00
234, -6539.09, 48568.57, -5016.96, -19655.95, 203.09, -17488.25, -2483.06, -19518.04, 0.00, 0.00, 0.00
235, -6548.77, 48507.87, -5010.55, -19656.21, 210.29, -17436.57, -2460.10, -19515.53, 0.00, 0.00, 0.00
236, -6555.41, 48551.59, -5008.49, -19662.54, 221.30, -17423.43, -2451.70, -19524.14, 0.00, 0.00, 0.00
237, -6551.21, 48620.03, -5011.51, -19658.18, 220.16, -17463.57, -2456.90, -19523.82, -0.07, 0.90, 0.38
238, -6557.42, 48568.68, -5022.84, -19651.70, 208.99, -17479.27, -2455.29, -19513.79, 0.00, 0.00, 0.00
239, -6559.37, 48502.30, -5016.49, -19640.68, 216.81, -17426.51, -2431.33, -19501.03, 0.00, 0.00, 0.00
240, -6560.59, 48533.66, -5003.06, -19637.15, 229.91, -17390.84, -2411.17, -19492.26, 0.00, 0.00, 0.00
241, -6556.35, 48616.79, -5005.54, -19637.53, 226.47, -17421.08, -2422.95, -19488.75, 0.00, 0.00, 0.00
242, -6556.75, 48581.76, -5005.67, -19631.00, 217.95, -17437.80, -2430.66, -19470.60, 0.00, 0.00, 0.00
243, -6559.66, 48500.49, -4996.78, -19622.62, 228.08, -17387.89, -2404.96, -19451.81, 0.00, 0.00, 0.00
244, -6561.98, 48518.24, -4984.46, -19621.88, 252.37, -17323.52, -2378.83, -19454.67, 0.00, 0.00, 0.00
245, -6563.41, 48611.09, -4988.93, -19633.64, 243.92, -17350.16, -2400.04, -19472.06, 0.00, 0.00, 0.00
246, -6545.55, 48590.12, -4982.02, -19617.57, 228.95, -17385.34, -2424.47, -19466.45, 0.00, 0.00, 0.00
247, -6542.38, 48516.40, -4969.78, -19607.38, 224.70, -17354.23, -2420.83, -19468.28, -0.07, 0.90, 0.38
248, -6549.60, 48513.70, -4959.38, -19615.76, 230.18, -17321.30, -2401.34, -19480.60, 0.00, 0.00, 0.00
249, -6546.02, 48609.36, -4954.58, -19622.42, 226.27, -17333.58, -2418.64, -19499.50, 0.00, 0.00, 0.00
250, -6523.76, 48619.20, -4949.35, -19602.61, 221.19, -17366.39, -2432.41, -19491.84, 0.00, 0.00, 0.00
251, -6520.16, 48544.32, -4941.01, -19591.10, 221.53, -17342.76, -2427.29, -19488.87, 0.00, 0.00, 0.00
252, -6522.84, 48516.09, -4931.58, -19590.14, 223.16, -17309.03, -2421.72, -19492.42, 0.00, 0.00, 0.00
253, -6525.14, 48600.13, -4936.18, -19602.35, 215.22, -17314.87, -2440.05, -19509.29, 0.00, 0.00, 0.00
254, -6510.66, 48632.39, -4940.36, -19600.60, 207.76, -17366.46, -2464.68, -19510.97, 0.00, 0.00, 0.00
255, -6509.54, 48560.97, -4937.28, -19593.47, 212.97, -17370.26, -2466.60, -19509.56, 0.00, 0.00, 0.00
0, -6524.23, 48517.16, -4943.62, -19608.67, 214.09, -17324.41, -2461.40, -19530.30, 0.00, 0.00, 0.00
1, -6531.65, 48582.36, -4950.40, -19626.13, 212.03, -17328.23, -2468.24, -19549.15, -0.08, 0.90, 0.38
2, -6527.04, 48638.24, -4956.54, -19627.83, 206.04, -17386.01, -2475.25, -19549.42, 0.00, 0.00, 0.00
3, -6533.12, 48570.20, -4963.00, -19626.55, 198.42, -17406.46, -2473.31, -19539.87, 0.00, 0.00, 0.00
4, -6542.42, 48504.22, -4955.60, -19623.20, 201.70, -17358.97, -2453.86, -19531.54, 0.00, 0.00, 0.00
5, -6548.14, 48547.83, -4945.35, -19620.47, 214.87, -17332.26, -2435.38, -19525.30, 0.00, 0.00, 0.00
6, -6553.87, 48617.48, -4951.98, -19627.33, 213.03, -17377.12, -2443.14, -19520.40, 0.00, 0.00, 0.00
7, -6549.06, 48560.32, -4952.81, -19619.51, 211.54, -17404.68, -2441.57, -19502.61, 0.00, 0.00, 0.00
8, -6561.82, 48489.36, -4954.49, -19622.17, 217.37, -17369.54, -2428.36, -19501.49, 0.00, 0.00, 0.00
9, -6562.29, 48514.75, -4945.03, -19619.42, 231.30, -17332.08, -2420.81, -19494.79, 0.00, 0.00, 0.00
10, -6557.89, 48598.73, -4952.36, -19624.23, 224.61, -17363.66, -2435.31, -19493.98, 0.00, 0.00, 0.00
11, -6551.01, 48571.43, -4953.48, -19615.53, 222.20, -17400.65, -2425.32, -19474.47, -0.07, 0.90, 0.39
12, -6550.83, 48491.30, -4945.21, -19607.62, 227.27, -17372.38, -2415.96, -19467.45, 0.00, 0.00, 0.00
13, -6558.02, 48498.63, -4940.92, -19611.80, 240.97, -17330.25, -2408.69, -19477.58, 0.00, 0.00, 0.00
14, -6562.65, 48594.46, -4949.88, -19629.17, 224.95, -17357.18, -2436.74, -19505.45, 0.00, 0.00, 0.00
15, -6540.01, 48581.89, -4948.27, -19614.57, 215.16, -17417.73, -2457.04, -19494.99, 0.00, 0.00, 0.00
16, -6522.37, 48508.38, -4922.10, -19586.54, 230.51, -17374.88, -2430.24, -19471.99, 0.00, 0.00, 0.00
17, -6536.45, 48497.83, -4924.29, -19594.90, 226.33, -17343.66, -2423.80, -19489.22, 0.00, 0.00, 0.00
18, -6539.72, 48586.10, -4927.62, -19604.96, 226.53, -17369.29, -2440.56, -19508.94, 0.00, 0.00, 0.00
19, -6523.33, 48597.81, -4924.94, -19594.59, 237.84, -17419.96, -2451.74, -19500.06, 0.00, 0.00, 0.00
20, -6521.32, 48521.28, -4921.65, -19586.43, 244.06, -17409.04, -2452.14, -19496.29, 0.00, 0.00, 0.00
21, -6550.45, 48486.25, -4935.22, -19606.19, 242.74, -17361.58, -2457.15, -19519.71, -0.06, 0.90, 0.38
22, -6537.80, 48549.91, -4933.16, -19603.13, 248.77, -17372.07, -2462.13, -19521.63, 0.00, 0.00, 0.00
23, -6529.21, 48601.74, -4937.08, -19602.75, 242.87, -17418.89, -2478.18, -19523.85, 0.00, 0.00, 0.00
24, -6530.11, 48530.96, -4940.94, -19598.48, 237.38, -17423.03, -2474.11, -19515.13, 0.00, 0.00, 0.00
25, -6540.43, 48468.95, -4941.05, -19602.52, 246.14, -17373.63, -2453.42, -19514.48, 0.00, 0.00, 0.00
26, -6550.47, 48530.51, -4946.93, -19620.18, 246.41, -17356.20, -2458.11, -19530.08, 0.00, 0.00, 0.00
27, -6542.15, 48579.46, -4952.01, -19622.98, 233.80, -17412.48, -2469.42, -19524.83, 0.00, 0.00, 0.00
28, -6540.48, 48512.61, -4952.79, -19612.25, 232.21, -17424.82, -2451.81, -19504.45, 0.00, 0.00, 0.00
29, -6559.90, 48442.35, -4951.31, -19614.41, 241.51, -17372.67, -2432.25, -19497.13, 0.00, 0.00, 0.00
30, -6568.35, 48479.66, -4956.52, -19629.44, 248.55, -17346.90, -2427.76, -19506.14, 0.00, 0.00, 0.00
31, -6564.46, 48553.04, -4960.23, -19632.27, 243.59, -17377.16, -2442.51, -19505.49, -0.06, 0.90, 0.38
32, -6559.48, 48508.20, -4966.69, -19627.07, 241.58, -17405.17, -2437.26, -19491.08, 0.00, 0.00, 0.00
33, -6549.82, 48425.81, -4946.44, -19606.48, 263.06, -17365.16, -2397.20, -19466.00, 0.00, 0.00, 0.00
34, -6562.02, 48455.61, -4940.50, -19611.13, 267.60, -17319.16, -2385.80, -19473.22, 0.00, 0.00, 0.00
35, -6555.74, 48543.72, -4951.40, -19621.48, 243.21, -17348.80, -2408.76, -19484.08, 0.00, 0.00, 0.00
36, -6545.35, 48521.41, -4957.66, -19620.16, 232.77, -17379.91, -2418.41, -19482.63, 0.00, 0.00, 0.00
37, -6549.98, 48440.86, -4956.63, -19619.71, 233.22, -17354.16, -2402.99, -19479.52, 0.00, 0.00, 0.00
38, -6552.28, 48435.80, -4944.81, -19616.72, 248.31, -17313.75, -2382.07, -19480.46, 0.00, 0.00, 0.00
39, -6538.80, 48527.67, -4939.94, -19615.98, 249.53, -17325.15, -2399.44, -19483.95, 0.00, 0.00, 0.00
40, -6521.32, 48529.19, -4942.13, -19608.11, 236.32, -17374.08, -2416.54, -19476.10, 0.00, 0.00, 0.00
41, -6521.72, 48456.12, -4941.77, -19603.53, 233.13, -17358.79, -2413.52, -19472.19, -0.07, 0.89, 0.38
42, -6540.70, 48435.34, -4939.89, -19606.93, 240.86, -17318.67, -2405.25, -19481.62, 0.00, 0.00, 0.00
43, -6532.23, 48518.77, -4936.05, -19610.79, 237.73, -17336.10, -2418.50, -19495.10, 0.00, 0.00, 0.00
44, -6519.33, 48542.55, -4935.85, -19603.73, 226.18, -17390.55, -2436.38, -19491.66, 0.00, 0.00, 0.00
45, -6530.58, 48469.51, -4938.89, -19598.14, 222.02, -17388.94, -2433.90, -19488.51, 0.00, 0.00, 0.00
46, -6548.10, 48417.18, -4940.20, -19596.76, 223.92, -17340.88, -2419.44, -19489.02, 0.00, 0.00, 0.00
47, -6558.81, 48473.76, -4942.42, -19600.04, 217.62, -17338.07, -2426.26, -19497.76, 0.00, 0.00, 0.00
48, -6559.10, 48500.58, -4943.85, -19595.82, 221.80, -17392.00, -2432.76, -19487.79, 0.00, 0.00, 0.00
49, -6563.95, 48421.75, -4952.30, -19598.32, 218.62, -17402.67, -2439.72, -19487.75, 0.00, 0.00, 0.00
50, -6573.89, 48351.05, -4951.05, -19600.54, 225.33, -17362.41, -2425.54, -19485.33, 0.00, 0.00, 0.00
51, -6594.68, 48399.44, -4957.48, -19617.07, 231.97, -17348.89, -2430.08, -19499.64, 0.00, 0.00, 0.00
52, -6589.38, 48457.15, -4966.09, -19621.75, 223.94, -17395.76, -2447.63, -19501.27, -0.07, 0.90, 0.37
53, -6576.40, 48389.89, -4966.31, -19606.61, 218.91, -17413.66, -2440.56, -19479.97, 0.00, 0.00, 0.00
54, -6589.99, 48324.16, -4970.87, -19611.51, 218.00, -17365.45, -2424.96, -19479.77, 0.00, 0.00, 0.00
55, -6585.78, 48359.23, -4966.69, -19617.61, 234.05, -17343.30, -2412.56, -19483.50, 0.00, 0.00, 0.00
56, -6581.81, 48448.97, -4976.33, -19630.75, 242.58, -17370.77, -2428.83, -19494.27, 0.00, 0.00, 0.00
57, -6575.55, 48406.34, -4983.52, -19628.65, 239.61, -17404.34, -2438.44, -19484.39, 0.00, 0.00, 0.00
58, -6569.98, 48323.89, -4975.90, -19620.07, 242.52, -17359.91, -2422.26, -19470.92, 0.00, 0.00, 0.00
59, -6575.46, 48339.91, -4973.73, -19627.67, 247.95, -17321.62, -2421.27, -19484.93, 0.00, 0.00, 0.00
60, -6567.55, 48428.90, -4969.08, -19630.78, 247.17, -17358.68, -2437.55, -19492.44, 0.00, 0.00, 0.00
61, -6558.16, 48419.06, -4972.53, -19629.46, 226.07, -17406.20, -2452.50, -19493.47, 0.00, 0.00, 0.00
62, -6556.30, 48345.44, -4966.09, -19619.78, 224.48, -17383.04, -2435.38, -19487.01, -0.07, 0.91, 0.37
63, -6564.33, 48343.00, -4958.02, -19620.38, 235.01, -17344.93, -2424.76, -19493.54, 0.00, 0.00, 0.00
64, -6560.28, 48436.54, -4958.47, -19619.29, 236.28, -17365.63, -2435.04, -19499.82, 0.00, 0.00, 0.00
65, -6543.34, 48451.11, -4963.32, -19608.38, 227.79, -17413.39, -2446.82, -19490.25, 0.00, 0.00, 0.00
66, -6531.92, 48378.36, -4949.55, -19587.32, 233.60, -17392.32, -2420.34, -19466.54, 0.00, 0.00, 0.00
67, -6544.46, 48351.09, -4937.97, -19585.78, 245.49, -17338.45, -2399.15, -19470.43, 0.00, 0.00, 0.00
68, -6551.34, 48426.75, -4938.19, -19587.59, 242.16, -17343.50, -2416.16, -19486.45, 0.00, 0.00, 0.00
69, -6552.30, 48456.77, -4949.79, -19593.34, 219.27, -17398.46, -2456.17, -19498.41, 0.00, 0.00, 0.00
70, -6563.19, 48373.49, -4951.20, -19593.02, 213.66, -17397.39, -2465.20, -19497.18, 0.00, 0.00, 0.00
71, -6568.15, 48318.14, -4942.62, -19592.78, 226.15, -17351.95, -2450.62, -19497.81, 0.00, 0.00, 0.00
72, -6578.19, 48388.13, -4938.60, -19596.96, 238.60, -17335.36, -2435.24, -19499.19, -0.07, 0.91, 0.36
73, -6580.78, 48434.15, -4953.59, -19603.87, 226.18, -17393.39, -2458.31, -19507.13, 0.00, 0.00, 0.00
74, -6590.68, 48368.46, -4959.09, -19598.99, 216.03, -17401.55, -2463.97, -19503.37, 0.00, 0.00, 0.00
75, -6607.56, 48298.39, -4956.25, -19601.47, 228.21, -17352.57, -2436.21, -19498.28, 0.00, 0.00, 0.00
76, -6613.41, 48334.28, -4954.17, -19611.26, 235.61, -17331.47, -2432.23, -19508.78, 0.00, 0.00, 0.00
77, -6619.22, 48409.50, -4969.55, -19629.39, 216.54, -17377.79, -2459.97, -19527.82, 0.00, 0.00, 0.00
78, -6619.67, 48346.96, -4974.34, -19619.38, 213.77, -17412.72, -2463.01, -19508.29, 0.00, 0.00, 0.00
79, -6639.47, 48269.35, -4974.54, -19622.26, 229.11, -17360.49, -2440.03, -19504.22, 0.00, 0.00, 0.00
80, -6647.07, 48294.09, -4974.69, -19630.93, 233.04, -17338.94, -2434.69, -19510.26, 0.00, 0.00, 0.00
81, -6645.60, 48370.38, -4976.77, -19628.70, 229.28, -17371.75, -2445.48, -19506.72, 0.00, 0.00, 0.00
82, -6654.94, 48329.03, -4990.97, -19630.51, 218.82, -17405.24, -2462.96, -19510.64, -0.05, 0.88, 0.35
83, -6666.94, 48251.02, -4999.97, -19642.58, 217.88, -17387.42, -2465.11, -19524.49, 0.00, 0.00, 0.00
84, -6675.71, 48253.70, -4997.20, -19649.57, 223.61, -17367.89, -2456.10, -19532.61, 0.00, 0.00, 0.00
85, -6690.57, 48337.50, -5002.97, -19661.62, 214.78, -17390.44, -2466.83, -19549.26, 0.00, 0.00, 0.00
86, -6680.02, 48315.06, -5006.66, -19653.53, 206.82, -17442.34, -2479.93, -19544.30, 0.00, 0.00, 0.00
87, -6665.22, 48232.36, -4992.80, -19631.74, 216.05, -17419.96, -2463.23, -19530.82, 0.00, 0.00, 0.00
88, -6674.57, 48223.80, -4988.17, -19633.77, 220.79, -17371.82, -2456.37, -19539.80, 0.00, 0.00, 0.00
89, -6682.77, 48310.19, -4992.08, -19638.91, 219.11, -17380.00, -2477.62, -19553.78, 0.00, 0.00, 0.00
90, -6674.61, 48318.77, -4987.43, -19625.41, 216.28, -17421.49, -2489.36, -19541.50, 0.00, 0.00, 0.00
91, -6675.37, 48235.11, -4981.20, -19615.38, 205.39, -17414.18, -2479.30, -19532.47, 0.00, 0.00, 0.00
92, -6673.05, 48198.76, -4969.93, -19603.75, 215.45, -17369.18, -2461.40, -19532.29, -0.04, 0.87, 0.32
93, -6665.27, 48284.06, -4965.69, -19604.96, 211.00, -17363.73, -2466.98, -19539.67, 0.00, 0.00, 0.00
94, -6653.26, 48331.09, -4973.87, -19603.06, 191.33, -17418.51, -2490.70, -19538.46, 0.00, 0.00, 0.00
95, -6642.42, 48253.12, -4969.26, -19588.60, 192.74, -17425.87, -2485.00, -19526.97, 0.00, 0.00, 0.00
96, -6647.79, 48184.79, -4962.40, -19587.10, 201.61, -17384.45, -2469.29, -19524.29, 0.00, 0.00, 0.00
97, -6653.78, 48251.52, -4972.30, -19605.27, 192.47, -17385.23, -2477.82, -19546.51, 0.00, 0.00, 0.00
98, -6636.64, 48313.52, -4981.06, -19607.04, 181.61, -17443.55, -2500.89, -19553.71, 0.00, 0.00, 0.00
99, -6626.08, 48250.57, -4981.89, -19599.28, 179.89, -17446.83, -2500.85, -19542.38, 0.00, 0.00, 0.00
100, -6637.40, 48183.03, -4980.66, -19601.18, 185.34, -17393.54, -2485.25, -19543.85, 0.00, 0.00, 0.00
101, -6642.76, 48215.17, -4980.82, -19608.49, 192.29, -17376.11, -2482.18, -19549.97, 0.00, 0.00, 0.00
102, -6635.03, 48285.64, -4985.60, -19609.65, 185.81, -17413.37, -2484.89, -19542.87, -0.04, 0.94, 0.31
103, -6626.35, 48231.96, -4989.51, -19596.87, 175.62, -17437.42, -2483.75, -19523.87, 0.00, 0.00, 0.00
104, -6627.49, 48156.99, -4987.90, -19589.65, 179.75, -17393.05, -2472.68, -19510.21, 0.00, 0.00, 0.00
105, -6635.92, 48205.71, -4986.70, -19599.71, 195.82, -17354.27, -2436.54, -19502.81, 0.00, 0.00, 0.00
106, -6644.59, 48322.01, -4998.05, -19616.18, 199.27, -17390.69, -2417.56, -19506.61, 0.00, 0.00, 0.00
107, -6644.12, 48306.36, -5008.53, -19623.49, 202.02, -17432.82, -2418.64, -19504.49, 0.00, 0.00, 0.00
108, -6649.62, 48224.85, -5010.88, -19632.59, 205.21, -17402.93, -2423.09, -19507.13, 0.00, 0.00, 0.00
109, -6653.60, 48225.32, -5008.18, -19639.85, 214.98, -17359.19, -2418.01, -19508.24, 0.00, 0.00, 0.00
110, -6647.50, 48314.32, -5012.20, -19645.17, 202.91, -17387.89, -2442.26, -19511.55, 0.00, 0.00, 0.00
111, -6638.96, 48307.17, -5008.22, -19639.11, 198.80, -17423.61, -2447.54, -19500.76, 0.00, 0.00, 0.00
112, -6645.62, 48220.64, -5006.03, -19638.20, 209.28, -17394.46, -2438.55, -19500.02, -0.07, 0.95, 0.30
113, -6654.07, 48186.70, -5002.45, -19641.66, 212.99, -17351.05, -2439.72, -19509.92, 0.00, 0.00, 0.00
114, -6662.43, 48274.83, -5010.75, -19651.56, 206.73, -17375.78, -2463.59, -19534.02, 0.00, 0.00, 0.00
115, -6660.22, 48294.12, -5020.13, -19646.20, 180.83, -17433.22, -2492.76, -19536.01, 0.00, 0.00, 0.00
116, -6651.59, 48204.82, -5017.16, -19635.18, 169.72, -17436.84, -2484.78, -19524.85, 0.00, 0.00, 0.00
117, -6656.26, 48166.82, -5008.27, -19638.58, 182.21, -17405.77, -2474.18, -19536.85, 0.00, 0.00, 0.00
118, -6647.54, 48245.19, -5001.92, -19638.67, 187.02, -17424.68, -2490.36, -19549.17, 0.00, 0.00, 0.00
119, -6637.10, 48306.21, -5001.36, -19634.91, 183.13, -17465.68, -2497.52, -19548.54, 0.00, 0.00, 0.00
120, -6627.47, 48239.24, -4999.08, -19626.33, 183.89, -17467.84, -2481.92, -19534.48, 0.00, 0.00, 0.00
121, -6636.84, 48180.37, -4992.49, -19626.06, 194.97, -17421.80, -2464.08, -19538.62, 0.00, 0.00, 0.00
122, -6647.25, 48256.21, -4998.65, -19640.70, 193.41, -17413.77, -2487.35, -19564.79, -0.08, 0.96, 0.30
123, -6655.63, 48328.92, -5021.63, -19660.21, 176.13, -17472.67, -2516.94, -19577.98, 0.00, 0.00, 0.00
124, -6655.88, 48264.75, -5021.25, -19654.25, 178.21, -17482.21, -2497.05, -19553.66, 0.00, 0.00, 0.00
125, -6660.31, 48186.67, -5018.75, -19655.65, 184.60, -17432.28, -2473.47, -19544.74, 0.00, 0.00, 0.00
126, -6666.94, 48235.40, -5018.06, -19669.56, 198.51, -17399.69, -2469.11, -19550.85, 0.00, 0.00, 0.00
127, -6665.67, 48328.96, -5027.96, -19676.93, 191.42, -17446.14, -2487.55, -19551.72, 0.00, 0.00, 0.00
128, -6660.57, 48289.40, -5034.17, -19671.12, 173.36, -17472.83, -2496.56, -19539.89, 0.00, 0.00, 0.00
129, -6667.79, 48214.97, -5034.89, -19674.88, 177.05, -17436.51, -2475.14, -19535.54, 0.00, 0.00, 0.00
130, -6684.96, 48245.59, -5037.50, -19688.76, 196.45, -17415.63, -2456.46, -19544.23, 0.00, 0.00, 0.00
131, -6678.39, 48349.30, -5046.93, -19700.02, 185.54, -17458.19, -2491.19, -19564.64, 0.00, 0.00, 0.00
132, -6671.28, 48328.98, -5056.08, -19700.42, 169.23, -17497.35, -2514.95, -19553.69, -0.10, 0.99, 0.31
133, -6677.38, 48252.79, -5055.92, -19702.32, 188.16, -17473.99, -2454.31, -19525.12, 0.00, 0.00, 0.00
134, -6687.60, 48248.63, -5054.60, -19712.76, 215.83, -17440.24, -2404.58, -19519.80, 0.00, 0.00, 0.00
135, -6681.07, 48331.02, -5056.14, -19713.70, 212.86, -17450.88, -2424.14, -19528.16, 0.00, 0.00, 0.00
136, -6670.59, 48317.83, -5061.62, -19706.95, 200.79, -17482.73, -2441.08, -19518.91, 0.00, 0.00, 0.00
137, -6663.59, 48201.13, -5051.47, -19685.31, 200.90, -17457.61, -2423.17, -19493.89, 0.00, 0.00, 0.00
138, -6672.26, 48155.02, -5041.01, -19681.40, 208.23, -17398.57, -2415.53, -19496.87, 0.00, 0.00, 0.00
139, -6674.90, 48242.06, -5047.18, -19690.41, 195.53, -17411.99, -2446.42, -19519.82, 0.00, 0.00, 0.00
140, -6652.26, 48261.82, -5050.96, -19676.80, 182.17, -17473.39, -2467.10, -19516.80, 0.00, 0.00, 0.00
141, -6638.00, 48165.86, -5040.63, -19655.74, 184.45, -17468.54, -2459.54, -19502.90, 0.00, 0.00, 0.00
142, -6651.34, 48118.07, -5035.09, -19650.71, 192.18, -17413.30, -2457.06, -19508.13, -0.10, 0.98, 0.32
143, -6658.16, 48187.61, -5038.22, -19662.18, 189.34, -17421.42, -2484.44, -19536.29, 0.00, 0.00, 0.00
144, -6647.99, 48234.48, -5042.69, -19654.56, 174.52, -17464.85, -2505.56, -19537.70, 0.00, 0.00, 0.00
145, -6647.45, 48152.90, -5044.59, -19643.74, 161.63, -17471.26, -2508.47, -19534.13, 0.00, 0.00, 0.00
146, -6653.29, 48077.68, -5038.37, -19638.06, 180.00, -17430.85, -2495.15, -19536.32, 0.00, 0.00, 0.00
147, -6659.93, 48136.56, -5040.34, -19647.00, 185.77, -17411.43, -2499.15, -19552.39, 0.00, 0.00, 0.00
148, -6662.27, 48209.20, -5051.52, -19657.71, 164.58, -17464.24, -2525.95, -19569.76, 0.00, 0.00, 0.00
149, -6655.25, 48141.34, -5047.74, -19648.57, 158.56, -17491.85, -2516.07, -19559.99, 0.00, 0.00, 0.00
150, -6657.31, 48060.88, -5033.37, -19642.42, 183.57, -17456.87, -2476.53, -19547.34, 0.00, 0.00, 0.00
151, -6665.42, 48093.20, -5025.97, -19647.61, 200.81, -17423.10, -2462.29, -19548.70, 0.00, 0.00, 0.00
152, -6663.68, 48180.99, -5038.19, -19660.79, 195.76, -17462.21, -2466.27, -19557.42, -0.08, 0.97, 0.32
153, -6654.00, 48130.21, -5035.18, -19647.65, 200.23, -17498.73, -2453.57, -19538.04, 0.00, 0.00, 0.00
154, -6661.42, 48045.09, -5027.94, -19634.62, 211.89, -17449.58, -2428.09, -19521.61, 0.00, 0.00, 0.00
155, -6677.72, 48051.62, -5030.86, -19642.87, 219.81, -17411.36, -2417.97, -19527.53, 0.00, 0.00, 0.00
156, -6682.14, 48132.42, -5043.36, -19653.60, 214.80, -17446.56, -2433.64, -19532.12, 0.00, 0.00, 0.00
157, -6672.53, 48102.76, -5045.88, -19647.09, 198.53, -17492.34, -2443.92, -19519.24, 0.00, 0.00, 0.00
158, -6662.29, 48010.47, -5035.56, -19628.05, 202.75, -17458.14, -2426.19, -19500.87, 0.00, 0.00, 0.00
159, -6668.69, 48011.23, -5036.45, -19632.86, 208.45, -17404.36, -2416.51, -19506.23, 0.00, 0.00, 0.00
160, -6677.34, 48101.36, -5042.75, -19643.52, 202.46, -17423.54, -2417.61, -19512.96, 0.00, 0.00, 0.00
161, -6663.81, 48107.57, -5043.54, -19630.33, 193.54, -17467.24, -2430.44, -19503.62, 0.00, 0.00, 0.00
162, -6652.37, 48027.73, -5035.98, -19614.75, 198.48, -17453.38, -2424.72, -19494.41, -0.07, 0.97, 0.33
163, -6661.87, 48007.23, -5034.44, -19620.12, 205.19, -17408.07, -2423.76, -19511.78, 0.00, 0.00, 0.00
164, -6662.52, 48099.30, -5034.69, -19623.02, 196.76, -17417.78, -2449.77, -19537.08, 0.00, 0.00, 0.00
165, -6649.11, 48140.96, -5034.26, -19613.41, 175.46, -17466.52, -2486.70, -19545.91, 0.00, 0.00, 0.00
166, -6632.54, 48066.44, -5019.31, -19586.14, 176.44, -17453.27, -2480.93, -19529.59, 0.00, 0.00, 0.00
167, -6644.08, 48023.70, -5008.00, -19580.15, 185.56, -17393.70, -2455.43, -19537.01, 0.00, 0.00, 0.00
168, -6660.48, 48111.91, -5013.61, -19598.17, 178.39, -17386.68, -2469.24, -19562.83, 0.00, 0.00, 0.00
169, -6648.24, 48170.45, -5017.68, -19594.92, 176.89, -17433.51, -2490.30, -19560.35, 0.00, 0.00, 0.00
170, -6642.16, 48110.45, -5010.32, -19579.99, 180.96, -17419.61, -2482.81, -19546.13, 0.00, 0.00, 0.00
171, -6643.65, 48043.91, -4998.16, -19575.46, 191.76, -17362.97, -2461.40, -19540.23, 0.00, 0.00, 0.00
172, -6657.29, 48106.72, -4999.73, -19592.22, 193.30, -17334.04, -2466.72, -19558.20, -0.07, 0.92, 0.33
173, -6653.49, 48193.67, -5005.92, -19601.99, 180.22, -17378.46, -2487.48, -19566.87, 0.00, 0.00, 0.00
174, -6648.73, 48143.00, -4998.77, -19589.87, 178.64, -17379.53, -2479.97, -19546.26, 0.00, 0.00, 0.00
175, -6655.48, 48064.09, -4998.50, -19595.13, 186.61, -17335.19, -2470.29, -19545.91, 0.00, 0.00, 0.00
176, -6666.65, 48096.57, -4996.20, -19608.22, 194.37, -17299.71, -2465.55, -19554.33, 0.00, 0.00, 0.00
177, -6665.18, 48190.76, -5005.27, -19614.48, 192.22, -17330.09, -2472.66, -19552.68, 0.00, 0.00, 0.00
178, -6660.86, 48161.86, -5006.72, -19609.16, 195.22, -17360.20, -2457.51, -19531.51, 0.00, 0.00, 0.00
179, -6688.80, 48085.26, -5013.03, -19620.07, 201.97, -17323.14, -2437.61, -19533.95, 0.00, 0.00, 0.00
180, -6687.42, 48072.21, -5004.24, -19620.29, 216.95, -17289.34, -2425.19, -19526.80, 0.00, 0.00, 0.00
181, -6679.35, 48171.34, -4998.10, -19624.25, 216.72, -17297.01, -2435.04, -19525.90, 0.00, 0.00, 0.00
182, -6678.50, 48170.04, -5001.58, -19624.63, 215.45, -17332.95, -2444.68, -19521.72, -0.07, 0.90, 0.32
183, -6696.34, 48083.68, -5001.63, -19631.00, 225.57, -17311.29, -2425.92, -19523.04, 0.00, 0.00, 0.00
184, -6698.86, 48052.02, -4993.94, -19633.64, 235.88, -17284.07, -2408.87, -19528.74, 0.00, 0.00, 0.00
185, -6696.38, 48147.33, -4990.29, -19641.24, 238.02, -17298.62, -2412.69, -19541.71, 0.00, 0.00, 0.00
186, -6686.41, 48177.21, -4998.10, -19640.90, 224.32, -17352.75, -2435.00, -19545.86, 0.00, 0.00, 0.00
187, -6683.33, 48099.75, -4998.21, -19635.54, 221.46, -17342.34, -2430.04, -19540.79, 0.00, 0.00, 0.00
188, -6691.93, 48059.96, -4997.18, -19639.96, 224.77, -17305.26, -2415.37, -19554.40, 0.00, 0.00, 0.00
189, -6692.78, 48152.81, -4997.94, -19651.03, 218.00, -17317.55, -2431.78, -19577.51, 0.00, 0.00, 0.00
190, -6688.78, 48211.66, -4997.20, -19650.98, 201.48, -17380.18, -2451.32, -19580.84, 0.00, 0.00, 0.00
191, -6682.14, 48144.56, -4992.89, -19635.78, 187.82, -17398.96, -2458.22, -19574.74, 0.00, 0.00, 0.00
192, -6671.93, 48082.98, -4977.35, -19616.92, 193.88, -17353.69, -2451.05, -19569.82, -0.07, 0.89, 0.32
193, -6666.90, 48154.71, -4974.13, -19617.95, 193.25, -17338.54, -2471.57, -19590.23, 0.00, 0.00, 0.00
194, -6655.03, 48236.72, -4977.47, -19618.15, 172.96, -17374.66, -2503.10, -19595.93, 0.00, 0.00, 0.00
195, -6660.48, 48193.18, -4989.04, -19623.06, 147.61, -17393.32, -2512.22, -19597.03, 0.00, 0.00, 0.00
196, -6646.34, 48109.65, -4968.99, -19604.09, 176.31, -17365.07, -2484.20, -19573.04, 0.00, 0.00, 0.00
197, -6646.58, 48165.75, -4953.24, -19604.18, 202.40, -17318.11, -2477.22, -19570.47, 0.00, 0.00, 0.00
198, -6647.05, 48264.34, -4968.10, -19613.34, 183.60, -17350.61, -2519.35, -19580.60, 0.00, 0.00, 0.00
199, -6639.41, 48223.53, -4979.50, -19611.98, 164.84, -17381.52, -2524.65, -19569.00, 0.00, 0.00, 0.00
200, -6644.28, 48139.35, -4978.00, -19609.39, 181.74, -17348.02, -2480.80, -19548.63, 0.00, 0.00, 0.00
201, -6658.47, 48160.36, -4979.01, -19621.79, 193.88, -17310.53, -2464.66, -19549.19, 0.00, 0.00, 0.00
202, -6651.03, 48257.48, -4981.51, -19627.67, 196.61, -17341.31, -2470.54, -19541.35, -0.07, 0.88, 0.33
203, -6633.71, 48235.49, -4983.14, -19613.50, 185.25, -17370.12, -2469.73, -19516.58, 0.00, 0.00, 0.00
204, -6634.96, 48148.58, -4983.32, -19613.50, 190.12, -17337.44, -2448.72, -19508.56, 0.00, 0.00, 0.00
205, -6655.50, 48143.22, -4987.99, -19629.17, 207.76, -17300.63, -2440.27, -19521.95, 0.00, 0.00, 0.00
206, -6660.19, 48237.14, -4997.67, -19645.75, 201.37, -17326.71, -2460.35, -19534.13, 0.00, 0.00, 0.00
207, -6651.34, 48234.77, -5004.80, -19649.80, 195.49, -17380.47, -2475.10, -19529.93, 0.00, 0.00, 0.00
208, -6657.71, 48145.28, -5001.72, -19644.19, 210.89, -17348.46, -2441.68, -19509.74, 0.00, 0.00, 0.00
209, -6678.86, 48107.86, -5004.42, -19651.72, 219.23, -17305.73, -2424.96, -19515.06, 0.00, 0.00, 0.00
210, -6671.26, 48195.28, -4997.16, -19650.29, 226.56, -17320.30, -2431.58, -19521.97, 0.00, 0.00, 0.00
211, -6664.44, 48232.92, -5005.61, -19652.30, 220.68, -17375.15, -2436.32, -19523.44, 0.00, 0.00, 0.00
212, -6663.41, 48146.57, -4996.31, -19639.79, 227.56, -17368.13, -2407.42, -19508.42, -0.07, 0.88, 0.34
213, -6669.31, 48090.65, -4989.85, -19636.23, 232.35, -17334.96, -2394.07, -19512.89, 0.00, 0.00, 0.00
214, -6666.56, 48170.46, -4987.23, -19637.26, 230.58, -17341.18, -2406.99, -19532.18, 0.00, 0.00, 0.00
215, -6653.94, 48239.62, -4985.40, -19627.02, 221.28, -17387.49, -2422.97, -19535.16, 0.00, 0.00, 0.00
216, -6656.64, 48188.41, -4982.63, -19616.87, 218.71, -17387.29, -2424.52, -19533.77, 0.00, 0.00, 0.00
217, -6657.96, 48116.64, -4975.97, -19611.69, 212.70, -17346.56, -2429.30, -19539.58, 0.00, 0.00, 0.00
218, -6641.31, 48170.15, -4961.89, -19602.57, 207.11, -17330.76, -2432.09, -19542.26, 0.00, 0.00, 0.00
219, -6640.81, 48269.35, -4968.50, -19608.54, 194.26, -17367.10, -2464.37, -19552.63, 0.00, 0.00, 0.00
220, -6643.72, 48229.61, -4981.15, -19605.32, 178.26, -17391.09, -2482.25, -19550.76, 0.00, 0.00, 0.00
221, -6639.90, 48146.19, -4967.92, -19594.03, 198.06, -17351.64, -2453.57, -19537.41, 0.00, 0.00, 0.00
222, -6638.65, 48189.20, -4956.59, -19595.75, 220.21, -17305.90, -2448.39, -19546.76, -0.08, 0.90, 0.36
223, -6628.72, 48282.29, -4958.38, -19597.38, 218.62, -17335.39, -2466.85, -19546.13, 0.00, 0.00, 0.00
224, -6627.74, 48251.85, -4966.60, -19595.30, 207.45, -17359.35, -2479.12, -19537.23, 0.00, 0.00, 0.00
225, -6624.63, 48162.17, -4965.15, -19591.66, 210.08, -17325.93, -2466.09, -19525.43, 0.00, 0.00, 0.00
226, -6619.96, 48172.21, -4962.40, -19596.87, 215.76, -17282.30, -2450.82, -19523.40, 0.00, 0.00, 0.00
227, -6627.98, 48281.24, -4971.94, -19608.87, 214.67, -17307.98, -2458.33, -19527.31, 0.00, 0.00, 0.00
228, -6627.40, 48272.91, -4977.04, -19604.09, 215.98, -17345.51, -2457.44, -19511.28, 0.00, 0.00, 0.00
229, -6636.10, 48178.80, -4977.89, -19606.44, 218.47, -17325.87, -2435.65, -19499.91, 0.00, 0.00, 0.00
230, -6646.38, 48153.66, -4978.20, -19614.41, 222.29, -17292.40, -2428.54, -19502.23, 0.00, 0.00, 0.00
231, -6654.36, 48253.86, -4990.90, -19634.82, 225.15, -17307.09, -2447.96, -19512.27, 0.00, 0.00, 0.00
232, -6643.39, 48264.97, -4995.30, -19630.26, 232.15, -17347.01, -2448.39, -19495.88, -0.07, 0.91, 0.36
233, -6646.60, 48175.12, -4989.51, -19621.39, 243.16, -17328.48, -2421.74, -19478.52, 0.00, 0.00, 0.00
234, -6660.60, 48124.51, -4994.63, -19632.30, 247.93, -17293.59, -2405.32, -19484.17, 0.00, 0.00, 0.00
235, -6658.79, 48208.49, -4993.80, -19639.31, 248.62, -17298.55, -2406.48, -19492.55, 0.00, 0.00, 0.00
236, -6657.67, 48253.50, -5002.07, -19641.26, 239.86, -17349.42, -2413.32, -19488.06, 0.00, 0.00, 0.00
237, -6666.16, 48172.19, -5010.90, -19639.38, 237.13, -17361.09, -2403.97, -19480.04, 0.00, 0.00, 0.00
238, -6678.12, 48104.46, -5008.29, -19642.64, 254.88, -17327.94, -2385.53, -19483.99, 0.00, 0.00, 0.00
239, -6667.95, 48167.02, -4995.95, -19634.31, 263.33, -17323.70, -2386.36, -19483.01, 0.00, 0.00, 0.00
240, -6653.15, 48242.55, -4990.18, -19621.61, 261.92, -17350.34, -2403.08, -19486.18, 0.00, 0.00, 0.00
241, -6654.40, 48193.80, -4999.24, -19621.68, 251.79, -17358.99, -2419.96, -19496.96, 0.00, 0.00, 0.00
242, -6660.64, 48111.21, -4988.10, -19615.29, 258.56, -17323.21, -2408.31, -19499.04, -0.06, 0.90, 0.37
243, -6660.40, 48155.11, -4974.81, -19611.04, 260.31, -17305.90, -2408.04, -19508.85, 0.00, 0.00, 0.00
244, -6642.65, 48251.69, -4968.90, -19600.45, 252.49, -17341.96, -2434.33, -19514.90, 0.00, 0.00, 0.00
245, -6631.56, 48213.36, -4959.90, -19581.49, 245.11, -17360.26, -2443.18, -19502.86, 0.00, 0.00, 0.00
246, -6639.99, 48125.76, -4954.08, -19578.03, 245.00, -17316.99, -2427.65, -19499.15, 0.00, 0.00, 0.00
247, -6642.09, 48156.27, -4944.61, -19583.73, 251.77, -17287.49, -2430.06, -19511.93, 0.00, 0.00, 0.00
248, -6636.32, 48255.45, -4946.04, -19588.17, 246.72, -17323.79, -2443.11, -19518.71, 0.00, 0.00, 0.00
249, -6631.47, 48229.56, -4952.57, -19579.84, 230.80, -17350.34, -2450.78, -19506.30, 0.00, 0.00, 0.00
250, -6633.98, 48138.41, -4947.36, -19564.64, 231.90, -17312.21, -2433.90, -19493.36, 0.00, 0.00, 0.00
251, -6640.99, 48133.05, -4939.22, -19565.62, 242.61, -17267.62, -2423.20, -19496.51, 0.00, 0.00, 0.00
252, -6642.96, 48237.16, -4949.01, -19583.19, 232.55, -17295.64, -2444.97, -19513.83, -0.07, 0.90, 0.39
253, -6627.02, 48243.36, -4950.26, -19573.80, 218.11, -17335.99, -2440.88, -19494.43, 0.00, 0.00, 0.00
254, -6637.71, 48153.43, -4952.88, -19573.00, 208.56, -17321.28, -2422.37, -19476.04, 0.00, 0.00, 0.00
255, -6649.31, 48118.95, -4948.14, -19583.05, 242.81, -17284.58, -2412.98, -19480.86, 0.00, 0.00, 0.00
0, -6652.46, 48206.95, -4950.73, -19602.95, 252.11, -17309.57, -2429.01, -19495.73, 0.00, 0.00, 0.00
1, -6637.69, 48228.74, -4953.37, -19596.64, 242.76, -17343.21, -2431.00, -19478.34, 0.00, 0.00, 0.00
2, -6643.70, 48151.64, -4964.03, -19600.60, 235.52, -17321.73, -2427.87, -19473.80, 0.00, 0.00, 0.00
3, -6650.94, 48095.16, -4959.34, -19601.88, 242.61, -17283.22, -2417.27, -19472.32, 0.00, 0.00, 0.00
4, -6671.19, 48181.29, -4963.88, -19624.07, 245.38, -17287.53, -2421.30, -19493.18, 0.00, 0.00, 0.00
5, -6676.35, 48228.27, -4976.64, -19637.26, 234.20, -17349.49, -2434.35, -19501.05, 0.00, 0.00, 0.00
6, -6664.98, 48155.40, -4977.60, -19630.91, 236.44, -17357.09, -2424.92, -19486.76, -0.08, 0.90, 0.40
7, -6662.27, 48091.99, -4976.86, -19628.90, 249.51, -17318.91, -2399.33, -19491.26, 0.00, 0.00, 0.00
8, -6656.60, 48152.45, -4966.31, -19627.49, 256.67, -17312.03, -2390.32, -19500.22, 0.00, 0.00, 0.00
9, -6655.10, 48229.50, -4974.72, -19634.24, 250.38, -17360.31, -2405.47, -19506.28, 0.00, 0.00, 0.00
10, -6653.13, 48170.71, -4981.06, -19630.51, 237.46, -17382.84, -2411.13, -19499.53, 0.00, 0.00, 0.00
11, -6660.17, 48082.56, -4979.50, -19628.34, 236.19, -17342.34, -2403.93, -19505.56, 0.00, 0.00, 0.00
12, -6661.58, 48120.53, -4976.41, -19637.77, 226.11, -17327.68, -2419.60, -19529.37, 0.00, 0.00, 0.00
13, -6646.76, 48220.09, -4972.17, -19633.93, 222.38, -17366.54, -2442.62, -19529.05, 0.00, 0.00, 0.00
14, -6638.51, 48184.17, -4967.18, -19616.52, 221.98, -17384.05, -2442.11, -19506.68, 0.00, 0.00, 0.00
15, -6647.23, 48092.93, -4954.02, -19603.69, 225.82, -17340.28, -2426.82, -19495.28, 0.00, 0.00, 0.00
16, -6654.23, 48107.21, -4953.41, -19610.46, 216.95, -17310.78, -2429.34, -19508.54, -0.07, 0.89, 0.41
17, -6635.72, 48213.16, -4951.60, -19607.53, 213.77, -17339.95, -2444.07, -19511.75, 0.00, 0.00, 0.00
18, -6637.33, 48204.69, -4961.06, -19605.21, 210.91, -17378.50, -2452.34, -19505.94, 0.00, 0.00, 0.00
19, -6638.78, 48107.19, -4958.15, -19596.04, 207.16, -17353.20, -2444.25, -19495.48, 0.00, 0.00, 0.00
20, -6645.44, 48091.72, -4948.77, -19596.80, 220.70, -17296.14, -2427.98, -19495.06, 0.00, 0.00, 0.00
21, -6648.95, 48183.96, -4945.61, -19603.98, 238.05, -17309.79, -2433.97, -19503.06, 0.00, 0.00, 0.00
22, -6636.88, 48195.70, -4947.56, -19595.91, 246.63, -17347.81, -2439.40, -19496.44, 0.00, 0.00, 0.00
23, -6630.91, 48109.85, -4945.21, -19585.85, 246.25, -17328.50, -2428.34, -19484.60, 0.00, 0.00, 0.00
24, -6638.07, 48067.63, -4934.64, -19582.90, 252.78, -17284.42, -2409.92, -19480.95, 0.00, 0.00, 0.00
25, -6636.97, 48157.57, -4934.84, -19588.62, 250.61, -17295.42, -2411.82, -19485.94, 0.00, 0.00, 0.00
26, -6635.14, 48203.79, -4948.65, -19596.87, 237.93, -17340.75, -2422.59, -19489.49, -0.07, 0.88, 0.41
27, -6643.65, 48123.95, -4961.19, -19606.17, 228.64, -17353.16, -2425.14, -19492.67, 0.00, 0.00, 0.00
28, -6655.46, 48059.38, -4958.40, -19608.76, 241.20, -17310.20, -2404.51, -19493.49, 0.00, 0.00, 0.00
29, -6659.43, 48130.66, -4956.86, -19618.19, 255.88, -17305.37, -2398.77, -19501.47, 0.00, 0.00, 0.00
30, -6649.35, 48189.75, -4965.19, -19619.11, 247.95, -17357.49, -2404.33, -19499.04, 0.00, 0.00, 0.00
31, -6646.31, 48120.53, -4971.72, -19613.59, 236.68, -17360.33, -2397.96, -19492.60, 0.00, 0.00, 0.00
32, -6651.88, 48043.73, -4966.09, -19606.97, 239.86, -17311.74, -2379.54, -19493.40, 0.00, 0.00, 0.00
33, -6656.10, 48102.43, -4970.98, -19623.18, 249.51, -17307.29, -2373.20, -19511.15, 0.00, 0.00, 0.00
34, -6649.55, 48183.65, -4977.38, -19630.84, 251.14, -17367.69, -2389.47, -19520.20, 0.00, 0.00, 0.00
35, -6645.40, 48130.86, -4978.31, -19620.49, 247.50, -17391.47, -2401.11, -19515.80, 0.00, 0.00, 0.00
36, -6649.84, 48046.17, -4978.31, -19621.57, 251.01, -17361.36, -2402.12, -19519.38, -0.07, 0.88, 0.41
37, -6645.37, 48073.93, -4973.22, -19624.29, 249.65, -17344.60, -2411.06, -19529.99, 0.00, 0.00, 0.00
38, -6632.72, 48177.91, -4976.08, -19626.20, 231.09, -17382.53, -2433.19, -19538.98, 0.00, 0.00, 0.00
39, -6621.19, 48157.79, -4977.42, -19617.50, 215.96, -17406.49, -2444.36, -19530.64, 0.00, 0.00, 0.00
40, -6620.72, 48072.23, -4966.09, -19608.65, 221.60, -17364.44, -2425.99, -19518.06, 0.00, 0.00, 0.00
41, -6624.01, 48073.35, -4954.80, -19605.01, 225.71, -17328.73, -2426.19, -19520.13, 0.00, 0.00, 0.00
42, -6617.05, 48175.52, -4947.92, -19603.44, 225.84, -17345.51, -2440.50, -19518.73, 0.00, 0.00, 0.00
43, -6610.13, 48179.77, -4950.75, -19601.05, 221.75, -17367.71, -2441.68, -19510.44, 0.00, 0.00, 0.00
44, -6614.35, 48087.39, -4950.24, -19598.93, 228.03, -17344.82, -2428.38, -19500.69, 0.00, 0.00, 0.00
45, -6623.09, 48062.53, -4944.74, -19602.57, 243.39, -17310.98, -2412.85, -19498.37, 0.00, 0.00, 0.00
46, -6621.77, 48159.92, -4946.26, -19609.79, 241.38, -17325.22, -2417.25, -19498.79, -0.07, 0.89, 0.40
47, -6618.95, 48188.39, -4955.38, -19606.23, 233.20, -17356.73, -2427.58, -19489.98, 0.00, 0.00, 0.00
48, -6626.26, 48105.00, -4963.67, -19605.29, 226.15, -17340.30, -2425.07, -19481.58, 0.00, 0.00, 0.00
49, -6623.43, 48050.30, -4950.82, -19596.33, 243.34, -17299.33, -2407.24, -19476.46, 0.00, 0.00, 0.00
50, -6616.47, 48138.01, -4946.58, -19603.73, 252.91, -17298.48, -2411.82, -19485.87, 0.00, 0.00, 0.00
51, -6611.69, 48182.58, -4962.56, -19615.60, 245.38, -17351.93, -2431.06, -19495.10, 0.00, 0.00, 0.00
52, -6605.25, 48108.91, -4960.21, -19600.74, 246.92, -17346.54, -2416.34, -19483.66, 0.00, 0.00, 0.00
53, -6629.06, 48044.13, -4962.13, -19612.83, 252.31, -17306.20, -2402.57, -19497.34, 0.00, 0.00, 0.00
54, -6634.20, 48104.04, -4964.55, -19626.31, 264.31, -17314.15, -2402.39, -19513.90, 0.00, 0.00, 0.00
55, -6622.06, 48165.93, -4964.52, -19624.88, 270.75, -17362.86, -2409.27, -19513.56, 0.00, 0.00, 0.00
56, -6623.09, 48109.87, -4973.58, -19626.42, 259.62, -17387.64, -2412.11, -19513.90, -0.07, 0.88, 0.40
57, -6630.67, 48030.61, -4971.61, -19626.60, 262.10, -17356.06, -2395.10, -19512.87, 0.00, 0.00, 0.00
58, -6640.30, 48077.55, -4972.44, -19642.02, 267.73, -17357.00, -2389.45, -19530.78, 0.00, 0.00, 0.00
59, -6626.38, 48163.67, -4977.51, -19646.82, 262.36, -17401.30, -2403.28, -19539.27, 0.00, 0.00, 0.00
60, -6619.04, 48122.52, -4974.72, -19632.14, 257.89, -17410.02, -2403.75, -19530.35, 0.00, 0.00, 0.00
61, -6627.76, 48031.98, -4964.52, -19621.46, 250.03, -17368.02, -2387.43, -19518.48, 0.00, 0.00, 0.00
62, -6626.22, 48048.00, -4957.35, -19619.44, 247.43, -17336.41, -2393.13, -19522.79, 0.00, 0.00, 0.00
63, -6600.18, 48155.47, -4957.26, -19618.13, 248.46, -17362.57, -2422.30, -19530.33, 0.00, 0.00, 0.00
64, -6587.73, 48145.72, -4960.23, -19608.42, 238.83, -17391.53, -2437.75, -19524.03, 0.00, 0.00, 0.00
65, -6601.79, 48060.83, -4954.02, -19599.60, 255.75, -17355.35, -2411.28, -19509.85, 0.00, 0.00, 0.00
66, -6620.52, 48062.66, -4957.66, -19607.26, 256.91, -17327.72, -2398.23, -19511.42, -0.07, 0.89, 0.39
67, -6608.11, 48161.21, -4957.48, -19608.89, 249.96, -17352.98, -2420.27, -19514.01, 0.00, 0.00, 0.00
68, -6593.23, 48159.22, -4955.09, -19595.82, 240.75, -17388.14, -2425.59, -19495.95, 0.00, 0.00, 0.00
69, -6600.63, 48075.36, -4953.71, -19590.23, 237.20, -17350.96, -2408.31, -19484.48, 0.00, 0.00, 0.00
70, -6604.65, 48046.59, -4951.34, -19599.26, 238.14, -17310.20, -2402.25, -19484.15, 0.00, 0.00, 0.00
71, -6601.81, 48143.55, -4959.65, -19613.88, 233.60, -17323.18, -2408.74, -19484.93, 0.00, 0.00, 0.00
72, -6589.65, 48167.29, -4950.96, -19596.82, 245.78, -17348.57, -2398.36, -19454.85, 0.00, 0.00, 0.00
73, -6602.77, 48085.35, -4951.78, -19595.26, 247.05, -17332.28, -2390.16, -19447.49, 0.00, 0.00, 0.00
74, -6615.40, 48039.11, -4953.71, -19604.85, 255.46, -17291.80, -2378.11, -19457.69, 0.00, 0.00, 0.00
75, -6621.84, 48115.91, -4962.33, -19622.64, 257.60, -17312.07, -2398.07, -19481.65, 0.00, 0.00, 0.00
76, -6611.31, 48158.13, -4967.09, -19618.15, 247.30, -17367.19, -2419.26, -19483.50, -0.07, 0.89, 0.39
77, -6610.53, 48086.74, -4968.06, -19607.38, 249.87, -17372.51, -2414.03, -19480.44, 0.00, 0.00, 0.00
78, -6618.93, 48014.63, -4970.51, -19614.62, 265.94, -17336.71, -2391.06, -19487.41, 0.00, 0.00, 0.00
79, -6624.48, 48078.91, -4974.02, -19630.71, 267.51, -17325.42, -2388.84, -19502.03, 0.00, 0.00, 0.00
80, -6619.42, 48154.06, -4980.64, -19640.14, 252.37, -17381.36, -2401.23, -19509.29, 0.00, 0.00, 0.00
81, -6632.16, 48092.04, -4986.88, -19642.89, 248.28, -17406.11, -2402.21, -19509.03, 0.00, 0.00, 0.00
82, -6636.14, 48008.89, -4982.00, -19643.54, 257.83, -17373.16, -2395.48, -19514.73, 0.00, 0.00, 0.00
83, -6623.74, 48047.51, -4973.75, -19639.85, 251.59, -17358.10, -2400.49, -19519.71, 0.00, 0.00, 0.00
84, -6619.63, 48144.05, -4983.72, -19641.57, 238.81, -17395.69, -2407.10, -19526.82, 0.00, 0.00, 0.00
85, -6613.12, 48104.89, -4982.36, -19623.56, 239.90, -17414.45, -2384.98, -19508.58, 0.00, 0.00, 0.00
86, -6610.24, 48024.13, -4971.03, -19612.13, 256.04, -17372.76, -2361.77, -19503.53, -0.08, 0.89, 0.38
87, -6607.82, 48044.43, -4961.04, -19616.43, 258.12, -17348.51, -2372.12, -19516.94, 0.00, 0.00, 0.00
88, -6599.58, 48145.68, -4958.42, -19618.26, 265.18, -17382.53, -2393.49, -19523.18, 0.00, 0.00, 0.00
89, -6591.80, 48134.41, -4964.66, -19606.66, 261.36, -17409.53, -2402.68, -19511.57, 0.00, 0.00, 0.00
90, -6593.56, 48054.30, -4965.62, -19601.38, 255.75, -17362.37, -2394.61, -19504.78, 0.00, 0.00, 0.00
91, -6594.81, 48044.47, -4953.88, -19594.21, 265.61, -17316.52, -2380.13, -19495.10, 0.00, 0.00, 0.00
92, -6602.79, 48140.38, -4955.29, -19600.02, 261.27, -17319.58, -2388.60, -19495.57, 0.00, 0.00, 0.00
93, -6601.79, 48144.27, -4966.40, -19603.06, 246.72, -17354.01, -2404.76, -19487.17, 0.00, 0.00, 0.00
94, -6602.44, 48059.60, -4967.70, -19603.13, 243.86, -17322.80, -2407.39, -19483.28, 0.00, 0.00, 0.00
95, -6607.96, 48024.02, -4953.08, -19600.29, 250.99, -17269.52, -2394.94, -19474.54, 0.00, 0.00, 0.00
96, -6620.79, 48114.79, -4943.74, -19607.71, 252.55, -17264.33, -2395.44, -19474.65, -0.08, 0.90, 0.38
97, -6617.48, 48150.77, -4955.76, -19613.63, 243.81, -17306.42, -2415.02, -19478.58, 0.00, 0.00, 0.00
98, -6611.65, 48074.27, -4951.34, -19602.03, 250.05, -17285.47, -2406.52, -19464.59, 0.00, 0.00, 0.00
99, -6616.38, 48017.63, -4940.50, -19598.21, 263.39, -17223.18, -2391.23, -19461.08, 0.00, 0.00, 0.00
100, -6619.80, 48092.57, -4943.24, -19607.60, 257.98, -17221.73, -2397.96, -19478.23, 0.00, 0.00, 0.00
101, -6629.39, 48153.95, -4960.32, -19617.48, 245.74, -17270.34, -2417.36, -19487.39, 0.00, 0.00, 0.00
102, -6636.93, 48076.32, -4965.71, -19613.81, 245.47, -17276.65, -2408.15, -19466.71, 0.00, 0.00, 0.00
103, -6643.83, 48003.45, -4961.98, -19612.36, 252.80, -17230.36, -2385.58, -19467.79, 0.00, 0.00, 0.00
104, -6646.74, 48066.08, -4969.60, -19630.15, 233.15, -17228.75, -2401.99, -19496.53, 0.00, 0.00, 0.00
105, -6633.26, 48138.57, -4967.34, -19625.75, 236.10, -17267.30, -2398.81, -19491.06, 0.00, 0.00, 0.00
106, -6644.08, 48087.68, -4966.80, -19612.96, 256.31, -17265.63, -2386.16, -19485.98, -0.08, 0.91, 0.37
107, -6638.40, 48007.25, -4963.61, -19601.05, 252.04, -17221.28, -2375.21, -19475.01, 0.00, 0.00, 0.00
108, -6631.83, 48047.35, -4951.51, -19601.23, 248.17, -17201.66, -2358.44, -19483.77, 0.00, 0.00, 0.00
109, -6644.99, 48144.74, -4956.43, -19613.23, 258.23, -17246.65, -2360.81, -19498.86, 0.00, 0.00, 0.00
110, -6633.57, 48109.25, -4954.00, -19599.84, 251.55, -17271.19, -2369.22, -19487.26, 0.00, 0.00, 0.00
111, -6628.72, 48029.88, -4944.52, -19588.35, 252.35, -17223.90, -2365.95, -19481.71, 0.00, 0.00, 0.00
112, -6641.22, 48047.53, -4934.08, -19591.44, 259.12, -17186.28, -2361.33, -19489.65, 0.00, 0.00, 0.00
113, -6631.74, 48144.58, -4929.43, -19594.83, 257.56, -17217.82, -2374.14, -19498.34, 0.00, 0.00, 0.00
114, -6621.06, 48135.44, -4926.59, -19583.86, 248.98, -17250.03, -2386.47, -19489.36, 0.00, 0.00, 0.00
115, -6631.52, 48054.10, -4928.20, -19577.47, 244.73, -17216.14, -2379.77, -19482.32, 0.00, 0.00, 0.00
116, -6632.03, 48041.99, -4925.21, -19577.33, 242.14, -17185.12, -2374.34, -19486.27, -0.08, 0.90, 0.38
117, -6627.09, 48135.73, -4921.76, -19579.26, 238.34, -17203.94, -2388.44, -19489.20, 0.00, 0.00, 0.00
118, -6630.89, 48151.67, -4932.29, -19580.28, 221.15, -17237.58, -2406.19, -19485.27, 0.00, 0.00, 0.00
119, -6625.93, 48073.73, -4925.05, -19562.87, 229.71, -17213.93, -2392.11, -19465.84, 0.00, 0.00, 0.00
120, -6641.98, 48037.50, -4924.47, -19566.09, 239.68, -17177.52, -2382.83, -19468.23, 0.00, 0.00, 0.00
121, -6637.66, 48118.90, -4915.46, -19565.62, 245.18, -17189.34, -2389.78, -19470.31, 0.00, 0.00, 0.00
122, -6633.01, 48164.05, -4923.66, -19565.62, 236.30, -17228.32, -2400.85, -19467.74, 0.00, 0.00, 0.00
123, -6631.90, 48092.32, -4925.41, -19555.67, 238.90, -17225.04, -2386.23, -19450.40, 0.00, 0.00, 0.00
124, -6647.19, 48039.95, -4923.91, -19557.28, 244.98, -17171.59, -2367.50, -19448.12, 0.00, 0.00, 0.00
125, -6645.13, 48110.05, -4917.79, -19557.42, 252.42, -17168.51, -2362.58, -19447.74, 0.00, 0.00, 0.00
126, -6643.83, 48173.06, -4925.09, -19563.61, 252.53, -17213.64, -2366.20, -19447.71, -0.08, 0.91, 0.38
127, -6647.79, 48107.14, -4930.59, -19557.96, 244.71, -17223.49, -2360.14, -19436.67, 0.00, 0.00, 0.00
128, -6656.22, 48035.30, -4920.78, -19552.79, 259.08, -17180.91, -2338.24, -19430.48, 0.00, 0.00, 0.00
129, -6656.44, 48088.23, -4916.27, -19557.02, 271.33, -17172.78, -2341.10, -19443.04, 0.00, 0.00, 0.00
130, -6657.98, 48173.24, -4933.07, -19574.29, 260.15, -17221.91, -2367.83, -19465.87, 0.00, 0.00, 0.00
131, -6647.45, 48117.47, -4932.16, -19560.90, 257.96, -17253.89, -2361.44, -19446.80, 0.00, 0.00, 0.00
132, -6650.67, 48033.20, -4927.58, -19557.87, 270.12, -17204.74, -2328.56, -19441.14, 0.00, 0.00, 0.00
133, -6656.13, 48063.42, -4930.93, -19571.37, 273.76, -17191.46, -2314.79, -19456.37, 0.00, 0.00, 0.00
134, -6656.42, 48152.47, -4938.89, -19580.26, 262.86, -17234.36, -2337.08, -19471.52, 0.00, 0.00, 0.00
135, -6638.33, 48124.87, -4936.32, -19568.93, 259.79, -17258.68, -2347.83, -19466.69, 0.00, 0.00, 0.00
136, -6633.89, 48044.85, -4933.34, -19566.54, 259.86, -17224.88, -2345.97, -19464.05, -0.08, 0.91, 0.39
137, -6642.54, 48055.40, -4931.80, -19577.65, 256.35, -17197.97, -2341.21, -19481.38, 0.00, 0.00, 0.00
138, -6635.41, 48152.54, -4927.80, -19579.99, 262.59, -17228.97, -2343.27, -19485.69, 0.00, 0.00, 0.00
139, -6613.12, 48148.23, -4922.26, -19563.43, 259.68, -17250.54, -2349.77, -19468.82, 0.00, 0.00, 0.00
140, -6613.68, 48068.74, -4916.69, -19549.44, 253.20, -17217.95, -2347.11, -19461.87, 0.00, 0.00, 0.00
141, -6628.01, 48050.35, -4914.57, -19553.44, 241.31, -17189.50, -2348.74, -19471.79, 0.00, 0.00, 0.00
142, -6628.05, 48150.15, -4921.90, -19566.83, 220.50, -17215.98, -2372.15, -19484.17, 0.00, 0.00, 0.00
143, -6622.84, 48168.36, -4928.81, -19561.89, 218.60, -17252.84, -2384.24, -19476.71, 0.00, 0.00, 0.00
144, -6629.35, 48080.25, -4931.17, -19555.50, 220.16, -17236.37, -2382.34, -19470.69, 0.00, 0.00, 0.00
145, -6632.01, 48032.67, -4918.26, -19549.01, 235.14, -17192.25, -2365.60, -19466.25, 0.00, 0.00, 0.00
146, -6644.93, 48118.88, -4926.12, -19567.70, 244.13, -17202.15, -2379.88, -19485.49, -0.08, 0.89, 0.38
147, -6638.83, 48157.75, -4937.61, -19571.54, 237.08, -17255.23, -2397.69, -19483.32, 0.00, 0.00, 0.00
148, -6638.56, 48085.11, -4937.92, -19563.07, 235.83, -17252.95, -2387.37, -19468.77, 0.00, 0.00, 0.00
149, -6657.49, 48020.53, -4933.01, -19568.37, 242.70, -17211.96, -2360.48, -19465.60, 0.00, 0.00, 0.00
150, -6660.33, 48080.68, -4932.29, -19578.18, 241.60, -17210.44, -2364.52, -19473.11, 0.00, 0.00, 0.00
151, -6652.33, 48144.34, -4935.69, -19577.76, 237.26, -17257.78, -2373.89, -19466.71, 0.00, 0.00, 0.00
152, -6648.46, 48081.80, -4934.42, -19569.89, 254.52, -17274.32, -2355.58, -19452.07, 0.00, 0.00, 0.00
153, -6662.97, 48009.60, -4938.42, -19575.75, 260.87, -17227.76, -2339.47, -19453.86, 0.00, 0.00, 0.00
154, -6662.36, 48056.20, -4937.41, -19584.62, 272.00, -17222.15, -2340.32, -19463.05, 0.00, 0.00, 0.00
155, -6654.23, 48134.21, -4937.66, -19586.88, 270.10, -17268.69, -2350.96, -19464.05, 0.00, 0.00, 0.00
156, -6646.00, 48087.68, -4940.72, -19574.07, 271.48, -17291.17, -2343.85, -19451.87, -0.08, 0.89, 0.38
157, -6642.47, 48005.09, -4931.93, -19561.42, 283.06, -17246.65, -2319.35, -19442.31, 0.00, 0.00, 0.00
158, -6658.45, 48034.59, -4935.35, -19577.40, 285.03, -17226.20, -2314.90, -19460.63, 0.00, 0.00, 0.00
159, -6656.66, 48120.31, -4943.56, -19586.27, 276.67, -17273.83, -2341.28, -19471.30, 0.00, 0.00, 0.00
160, -6642.76, 48089.46, -4940.45, -19568.59, 269.72, -17287.04, -2346.84, -19459.67, 0.00, 0.00, 0.00
161, -6655.92, 48005.93, -4944.34, -19571.61, 264.04, -17248.10, -2332.43, -19469.69, 0.00, 0.00, 0.00
162, -6663.41, 48007.90, -4942.57, -19579.93, 261.69, -17215.78, -2331.35, -19485.94, 0.00, 0.00, 0.00
163, -6662.47, 48105.09, -4949.73, -19588.13, 246.79, -17247.25, -2355.81, -19503.24, 0.00, 0.00, 0.00
164, -6647.68, 48097.96, -4955.14, -19576.04, 226.04, -17299.15, -2375.34, -19496.89, 0.00, 0.00, 0.00
165, -6646.16, 48013.58, -4960.17, -19566.52, 217.10, -17268.04, -2373.62, -19488.02, 0.00, 0.00, 0.00
166, -6656.73, 47991.81, -4958.20, -19570.31, 224.32, -17213.01, -2368.48, -19491.10, -0.08, 0.91, 0.38
167, -6658.32, 48082.04, -4954.31, -19576.98, 228.73, -17218.20, -2373.80, -19495.26, 0.00, 0.00, 0.00
168, -6655.30, 48104.33, -4967.43, -19582.32, 216.10, -17268.44, -2383.97, -19494.83, 0.00, 0.00, 0.00
169, -6652.75, 48025.87, -4964.79, -19573.80, 217.59, -17257.24, -2381.35, -19485.02, 0.00, 0.00, 0.00
170, -6653.76, 47970.80, -4953.73, -19568.66, 223.90, -17211.96, -2373.38, -19476.50, 0.00, 0.00, 0.00
171, -6652.88, 48048.07, -4941.17, -19565.51, 225.77, -17196.85, -2377.06, -19474.22, 0.00, 0.00, 0.00
172, -6659.21, 48098.11, -4953.91, -19574.56, 213.15, -17236.90, -2389.45, -19477.82, 0.00, 0.00, 0.00
173, -6653.87, 48029.72, -4955.81, -19566.49, 218.18, -17239.10, -2383.95, -19464.21, 0.00, 0.00, 0.00
174, -6656.71, 47973.17, -4948.01, -19563.88, 226.67, -17193.39, -2355.65, -19456.21, 0.00, 0.00, 0.00
175, -6669.07, 48036.09, -4950.04, -19580.26, 233.31, -17191.49, -2364.55, -19471.43, 0.00, 0.00, 0.00
176, -6664.87, 48098.79, -4952.52, -19581.63, 238.83, -17237.78, -2383.50, -19471.72, -0.07, 0.90, 0.38
177, -6652.28, 48045.90, -4947.40, -19568.64, 250.25, -17244.08, -2364.52, -19458.18, 0.00, 0.00, 0.00
178, -6652.66, 47966.37, -4935.53, -19558.96, 260.91, -17207.11, -2335.47, -19452.34, 0.00, 0.00, 0.00
179, -6654.90, 48004.55, -4930.26, -19569.00, 267.44, -17191.20, -2332.47, -19466.76, 0.00, 0.00, 0.00
180, -6640.59, 48086.69, -4930.50, -19571.34, 262.05, -17232.79, -2340.65, -19470.45, 0.00, 0.00, 0.00
181, -6643.01, 48049.97, -4939.56, -19573.29, 249.80, -17269.45, -2343.96, -19468.73, 0.00, 0.00, 0.00
182, -6659.95, 47972.50, -4941.84, -19576.06, 243.88, -17234.87, -2337.81, -19474.87, 0.00, 0.00, 0.00
183, -6669.07, 47988.99, -4936.14, -19577.42, 247.99, -17205.95, -2334.13, -19486.52, 0.00, 0.00, 0.00
184, -6657.53, 48077.57, -4934.24, -19576.75, 249.24, -17233.31, -2342.62, -19492.38, 0.00, 0.00, 0.00
185, -6646.18, 48052.38, -4935.18, -19570.96, 246.05, -17270.50, -2353.12, -19483.90, 0.00, 0.00, 0.00
186, -6653.51, 47971.74, -4936.36, -19569.67, 243.84, -17238.49, -2345.73, -19484.78, -0.07, 0.90, 0.37
187, -6668.67, 47969.57, -4932.45, -19571.66, 248.26, -17206.08, -2337.90, -19492.82, 0.00, 0.00, 0.00
188, -6666.50, 48061.52, -4935.62, -19578.59, 245.60, -17240.71, -2353.97, -19499.28, 0.00, 0.00, 0.00
189, -6669.63, 48066.29, -4953.46, -19587.06, 225.44, -17287.06, -2379.54, -19506.66, 0.00, 0.00, 0.00
190, -6665.42, 47978.22, -4956.21, -19578.00, 220.66, -17273.70, -2375.12, -19495.93, 0.00, 0.00, 0.00
191, -6670.50, 47946.48, -4946.80, -19575.86, 233.89, -17229.51, -2367.25, -19497.58, 0.00, 0.00, 0.00
192, -6678.83, 48036.82, -4938.77, -19577.47, 249.76, -17224.16, -2374.85, -19500.80, 0.00, 0.00, 0.00
193, -6657.89, 48064.03, -4942.73, -19569.42, 239.05, -17260.24, -2390.18, -19490.74, 0.00, 0.00, 0.00
194, -6648.10, 48000.57, -4946.04, -19567.41, 223.94, -17243.39, -2393.25, -19485.94, 0.00, 0.00, 0.00
195, -6658.67, 47948.18, -4941.01, -19570.99, 236.10, -17205.41, -2369.89, -19474.22, 0.00, 0.00, 0.00
196, -6671.79, 48017.27, -4942.57, -19579.57, 237.62, -17202.28, -2375.92, -19472.15, -0.08, 0.91, 0.36
197, -6665.98, 48068.27, -4954.02, -19581.11, 225.77, -17237.42, -2388.73, -19457.30, 0.00, 0.00, 0.00
198, -6664.78, 47996.70, -4958.87, -19574.05, 217.46, -17231.56, -2375.86, -19436.38, 0.00, 0.00, 0.00
199, -6678.72, 47926.50, -4957.39, -19581.36, 230.18, -17186.90, -2357.71, -19438.26, 0.00, 0.00, 0.00
200, -6681.99, 47981.08, -4955.07, -19591.55, 245.31, -17176.18, -2365.06, -19452.66, 0.00, 0.00, 0.00
201, -6672.80, 48053.79, -4953.91, -19594.37, 244.62, -17216.97, -2387.43, -19459.43, 0.00, 0.00, 0.00
202, -6650.52, 47998.67, -4943.47, -19576.26, 254.72, -17242.89, -2380.71, -19442.60, 0.00, 0.00, 0.00
203, -6662.88, 47930.48, -4940.85, -19581.09, 264.29, -17206.86, -2350.96, -19449.79, 0.00, 0.00, 0.00
204, -6669.69, 47966.28, -4943.96, -19588.17, 266.46, -17195.89, -2339.60, -19464.81, 0.00, 0.00, 0.00
205, -6664.13, 48054.15, -4944.88, -19586.01, 270.79, -17234.09, -2352.57, -19469.15, 0.00, 0.00, 0.00
206, -6665.09, 48019.05, -4954.89, -19585.51, 259.57, -17266.34, -2363.85, -19468.01, -0.08, 0.91, 0.36
207, -6663.19, 47932.04, -4947.94, -19577.65, 269.67, -17248.13, -2334.84, -19456.21, 0.00, 0.00, 0.00
208, -6671.39, 47947.51, -4940.29, -19583.37, 308.54, -17215.96, -2301.22, -19460.52, 0.00, 0.00, 0.00
209, -6658.50, 48038.46, -4941.66, -19582.45, 312.95, -17253.74, -2309.11, -19465.80, 0.00, 0.00, 0.00
210, -6642.04, 48027.82, -4941.43, -19570.11, 308.25, -17279.73, -2313.99, -19459.12, 0.00, 0.00, 0.00
211, -6653.44, 47948.47, -4944.68, -19568.06, 301.06, -17246.49, -2304.98, -19457.39, 0.00, 0.00, 0.00
212, -6667.91, 47938.43, -4947.98, -19574.49, 293.84, -17221.59, -2307.71, -19467.74, 0.00, 0.00, 0.00
213, -6666.25, 48033.07, -4953.79, -19583.70, 279.98, -17254.34, -2329.97, -19482.12, 0.00, 0.00, 0.00
214, -6655.99, 48032.27, -4955.27, -19576.73, 272.85, -17300.14, -2345.28, -19472.32, 0.00, 0.00, 0.00
215, -6654.70, 47953.18, -4946.87, -19565.13, 272.09, -17253.15, -2339.38, -19466.40, 0.00, 0.00, 0.00
216, -6660.82, 47925.89, -4944.88, -19574.45, 269.70, -17209.52, -2340.76, -19476.13, -0.08, 0.91, 0.36
217, -6655.61, 48008.21, -4943.71, -19583.57, 254.52, -17224.07, -2356.21, -19484.80, 0.00, 0.00, 0.00
218, -6657.44, 48038.66, -4956.07, -19589.65, 238.60, -17274.32, -2381.96, -19485.45, 0.00, 0.00, 0.00
219, -6665.47, 47960.05, -4961.51, -19593.29, 226.40, -17273.70, -2394.25, -19479.48, 0.00, 0.00, 0.00
220, -6671.01, 47904.77, -4961.26, -19594.68, 233.11, -17237.69, -2385.53, -19477.87, 0.00, 0.00, 0.00
221, -6668.64, 47976.81, -4953.44, -19594.95, 245.87, -17216.34, -2370.09, -19470.13, 0.00, 0.00, 0.00
222, -6661.87, 48032.98, -4964.50, -19596.62, 228.84, -17254.12, -2380.13, -19466.78, 0.00, 0.00, 0.00
223, -6657.73, 47970.62, -4962.69, -19586.16, 234.18, -17243.25, -2372.26, -19456.32, 0.00, 0.00, 0.00
224, -6658.76, 47898.98, -4952.19, -19576.30, 257.67, -17186.86, -2352.57, -19445.26, 0.00, 0.00, 0.00
225, -6665.04, 47956.36, -4949.77, -19584.64, 268.51, -17165.04, -2351.16, -19456.08, 0.00, 0.00, 0.00
226, -6662.09, 48032.00, -4967.76, -19595.42, 252.66, -17221.93, -2374.58, -19468.90, -0.07, 0.92, 0.36
227, -6639.18, 47975.69, -4964.97, -19573.44, 250.79, -17245.20, -2362.18, -19441.64, 0.00, 0.00, 0.00
228, -6648.55, 47907.86, -4954.82, -19569.09, 263.06, -17193.95, -2334.06, -19431.87, 0.00, 0.00, 0.00
229, -6657.20, 47940.80, -4960.84, -19580.40, 260.38, -17182.66, -2340.00, -19447.67, 0.00, 0.00, 0.00
230, -6652.24, 48023.95, -4963.52, -19586.56, 261.60, -17222.35, -2350.89, -19450.06, 0.00, 0.00, 0.00
231, -6662.36, 47990.29, -4976.08, -19594.07, 258.10, -17253.94, -2351.05, -19452.07, 0.00, 0.00, 0.00
232, -6667.95, 47904.50, -4971.30, -19590.81, 265.94, -17225.68, -2333.30, -19447.49, 0.00, 0.00, 0.00
233, -6672.71, 47910.16, -4961.28, -19591.86, 283.29, -17199.13, -2319.64, -19452.46, 0.00, 0.00, 0.00
234, -6674.10, 48003.95, -4972.01, -19600.42, 285.92, -17225.75, -2335.44, -19462.45, 0.00, 0.00, 0.00
235, -6663.39, 47985.28, -4978.20, -19586.47, 272.27, -17256.42, -2343.11, -19443.98, 0.00, 0.00, 0.00
236, -6673.49, 47903.79, -4979.90, -19578.12, 262.83, -17227.88, -2337.23, -19437.88, 0.00, 0.00, 0.00
237, -6672.76, 47888.92, -4975.14, -19573.29, 264.04, -17193.61, -2323.40, -19440.50, -0.06, 0.92, 0.36
238, -6664.15, 47985.21, -4975.36, -19576.98, 260.69, -17210.98, -2330.15, -19453.79, 0.00, 0.00, 0.00
239, -6655.79, 48001.09, -4975.50, -19576.48, 255.99, -17248.59, -2360.21, -19462.02, 0.00, 0.00, 0.00
240, -6656.48, 47918.59, -4971.52, -19577.13, 253.87, -17250.00, -2372.37, -19467.56, 0.00, 0.00, 0.00
241, -6661.42, 47881.66, -4966.11, -19581.71, 255.46, -17219.20, -2368.08, -19475.99, 0.00, 0.00, 0.00
242, -6650.47, 47957.25, -4961.01, -19581.98, 261.05, -17226.98, -2376.73, -19481.22, 0.00, 0.00, 0.00
243, -6644.03, 47998.07, -4959.18, -19577.42, 265.23, -17253.20, -2380.57, -19468.53, 0.00, 0.00, 0.00
244, -6665.31, 47933.34, -4976.26, -19590.30, 247.86, -17247.99, -2381.44, -19473.00, 0.00, 0.00, 0.00
245, -6667.95, 47865.77, -4977.67, -19597.92, 240.91, -17225.88, -2378.02, -19480.86, 0.00, 0.00, 0.00
246, -6672.51, 47933.18, -4971.50, -19607.11, 254.72, -17213.77, -2381.60, -19491.26, 0.00, 0.00, 0.00
247, -6658.83, 47981.80, -4971.83, -19596.67, 257.38, -17265.36, -2390.99, -19473.93, -0.07, 0.91, 0.36
248, -6650.76, 47927.26, -4966.40, -19585.42, 254.74, -17248.15, -2381.22, -19454.62, 0.00, 0.00, 0.00
249, -6667.37, 47860.16, -4977.31, -19597.41, 245.67, -17210.20, -2376.46, -19464.10, 0.00, 0.00, 0.00
250, -6670.52, 47905.80, -4978.09, -19609.72, 247.28, -17205.46, -2377.82, -19477.53, 0.00, 0.00, 0.00
251, -6637.84, 47975.29, -4968.81, -19595.57, 243.50, -17263.55, -2379.70, -19460.54, 0.00, 0.00, 0.00
252, -6643.97, 47932.73, -4971.14, -19588.17, 236.21, -17269.22, -2371.81, -19444.14, 0.00, 0.00, 0.00
253, -6672.26, 47859.49, -4991.12, -19608.89, 244.13, -17233.13, -2368.37, -19460.01, 0.00, 0.00, 0.00
254, -6667.93, 47879.43, -4985.31, -19611.76, 264.15, -17212.56, -2349.08, -19458.87, 0.00, 0.00, 0.00
255, -6664.53, 47966.30, -4985.22, -19615.91, 259.28, -17249.31, -2359.03, -19462.80, 0.00, 0.00, 0.00
0, -6655.30, 47937.49, -4985.31, -19603.35, 263.44, -17286.77, -2362.74, -19451.85, 0.00, 0.00, 0.00
1, -6659.50, 47855.22, -4984.08, -19603.06, 273.47, -17261.78, -2352.72, -19451.96, -0.07, 0.92, 0.35
2, -6664.82, 47857.18, -4977.93, -19610.95, 280.78, -17231.90, -2342.95, -19464.21, 0.00, 0.00, 0.00
3, -6650.67, 47946.14, -4971.90, -19606.32, 274.10, -17259.86, -2350.44, -19469.98, 0.00, 0.00, 0.00
4, -6638.40, 47944.67, -4969.02, -19595.13, 263.66, -17290.46, -2357.57, -19460.48, 0.00, 0.00, 0.00
5, -6657.06, 47868.74, -4974.43, -19597.21, 264.38, -17269.38, -2351.00, -19463.83, 0.00, 0.00, 0.00
6, -6653.56, 47844.71, -4965.02, -19590.52, 271.17, -17238.00, -2340.61, -19466.29, 0.00, 0.00, 0.00
7, -6648.44, 47934.72, -4966.87, -19597.14, 245.53, -17252.39, -2359.81, -19483.21, 0.00, 0.00, 0.00
8, -6639.50, 47956.02, -4972.46, -19597.00, 215.90, -17299.27, -2376.01, -19478.74, 0.00, 0.00, 0.00
9, -6647.16, 47885.14, -4977.38, -19596.69, 216.07, -17262.45, -2376.86, -19474.89, 0.00, 0.00, 0.00
10, -6644.68, 47840.58, -4963.43, -19587.62, 238.65, -17203.22, -2358.20, -19467.29, 0.00, 0.00, 0.00
11, -6638.11, 47919.59, -4948.88, -19583.77, 287.53, -17194.77, -2349.91, -19467.88, -0.08, 0.92, 0.35
12, -6630.04, 47964.29, -4956.41, -19584.51, 290.77, -17232.28, -2372.59, -19470.65, 0.00, 0.00, 0.00
13, -6629.19, 47899.21, -4954.87, -19575.41, 275.49, -17230.11, -2371.72, -19464.03, 0.00, 0.00, 0.00
14, -6650.69, 47848.04, -4961.22, -19581.00, 270.10, -17181.90, -2367.36, -19477.85, 0.00, 0.00, 0.00
15, -6648.91, 47919.81, -4957.75, -19583.26, 250.03, -17154.56, -2376.01, -19492.20, 0.00, 0.00, 0.00
16, -6632.70, 47984.07, -4959.61, -19585.31, 250.34, -17208.43, -2393.51, -19492.60, 0.00, 0.00, 0.00
17, -6604.87, 47923.14, -4928.31, -19552.99, 290.24, -17204.70, -2365.15, -19459.79, 0.00, 0.00, 0.00
18, -6634.04, 47863.15, -4936.25, -19567.65, 289.86, -17159.63, -2356.34, -19472.17, 0.00, 0.00, 0.00
19, -6639.18, 47904.93, -4937.14, -19575.54, 273.18, -17145.60, -2363.32, -19483.26, 0.00, 0.00, 0.00
20, -6626.02, 47986.91, -4936.56, -19570.87, 243.66, -17177.85, -2373.98, -19480.37, 0.00, 0.00, 0.00
21, -6630.00, 47949.65, -4947.42, -19572.46, 228.81, -17199.20, -2375.74, -19475.16, -0.08, 0.92, 0.35
22, -6631.67, 47867.80, -4939.04, -19562.51, 272.71, -17147.54, -2356.66, -19470.92, 0.00, 0.00, 0.00
23, -6627.81, 47891.25, -4927.98, -19562.71, 294.66, -17101.25, -2341.50, -19477.15, 0.00, 0.00, 0.00
24, -6622.35, 47982.00, -4930.17, -19571.41, 294.82, -17131.16, -2354.98, -19490.41, 0.00, 0.00, 0.00
25, -6615.18, 47959.11, -4934.50, -19569.87, 275.46, -17167.64, -2363.50, -19485.33, 0.00, 0.00, 0.00
26, -6625.59, 47869.63, -4935.67, -19570.81, 252.51, -17146.00, -2356.01, -19484.48, 0.00, 0.00, 0.00
27, -6629.95, 47864.70, -4925.88, -19567.54, 252.53, -17112.00, -2354.73, -19495.21, 0.00, 0.00, 0.00
28, -6614.51, 47955.96, -4922.26, -19567.52, 253.27, -17142.69, -2372.66, -19504.65, 0.00, 0.00, 0.00
29, -6600.22, 47957.19, -4918.26, -19551.18, 243.12, -17181.18, -2374.90, -19489.74, 0.00, 0.00, 0.00
30, -6601.92, 47876.41, -4910.57, -19540.25, 237.38, -17153.35, -2355.09, -19483.39, 0.00, 0.00, 0.00
31, -6613.61, 47852.49, -4911.24, -19553.17, 243.77, -17120.16, -2352.12, -19501.61, -0.07, 0.92, 0.36
32, -6596.87, 47929.25, -4909.36, -19556.39, 242.16, -17148.59, -2369.15, -19508.56, 0.00, 0.00, 0.00
33, -6570.16, 47960.47, -4894.27, -19538.58, 246.45, -17168.96, -2374.49, -19491.44, 0.00, 0.00, 0.00
34, -6576.87, 47885.06, -4894.18, -19535.76, 254.03, -17150.07, -2366.76, -19487.70, 0.00, 0.00, 0.00
35, -6595.80, 47837.07, -4896.78, -19545.53, 252.22, -17101.12, -2359.32, -19495.84, 0.00, 0.00, 0.00
36, -6594.35, 47909.60, -4898.97, -19551.99, 236.35, -17116.12, -2376.82, -19508.76, 0.00, 0.00, 0.00
37, -6579.41, 47955.33, -4898.99, -19548.37, 229.66, -17178.59, -2391.55, -19502.90, 0.00, 0.00, 0.00
38, -6581.96, 47885.28, -4899.57, -19548.66, 237.26, -17181.58, -2388.64, -19495.39, 0.00, 0.00, 0.00
39, -6594.48, 47820.95, -4899.08, -19554.40, 248.86, -17133.97, -2384.24, -19494.88, 0.00, 0.00, 0.00
40, -6593.56, 47878.11, -4888.57, -19554.89, 260.40, -17109.07, -2372.50, -19488.96, 0.00, 0.00, 0.00
41, -6582.41, 47949.74, -4890.76, -19556.48, 261.38, -17149.11, -2376.19, -19487.57, -0.07, 0.91, 0.36
42, -6587.86, 47905.42, -4904.69, -19558.20, 260.67, -17153.26, -2379.54, -19489.58, 0.00, 0.00, 0.00
43, -6593.41, 47826.88, -4907.84, -19557.46, 257.25, -17123.29, -2372.32, -19490.25, 0.00, 0.00, 0.00
44, -6595.13, 47865.86, -4902.36, -19556.86, 266.59, -17105.10, -2374.07, -19501.20, 0.00, 0.00, 0.00
45, -6589.38, 47954.28, -4908.33, -19556.70, 259.35, -17150.43, -2390.81, -19505.00, 0.00, 0.00, 0.00
46, -6585.32, 47911.28, -4908.00, -19547.96, 249.58, -17182.52, -2369.55, -19484.93, 0.00, 0.00, 0.00
47, -6574.30, 47822.38, -4886.34, -19527.38, 286.17, -17146.00, -2328.76, -19463.63, 0.00, 0.00, 0.00
48, -6594.77, 47853.41, -4894.14, -19549.42, 292.16, -17110.30, -2332.40, -19495.04, 0.00, 0.00, 0.00
49, -6591.40, 47946.52, -4904.04, -19562.83, 291.65, -17164.17, -2351.11, -19508.71, 0.00, 0.00, 0.00
50, -6587.10, 47927.82, -4906.14, -19552.14, 293.37, -17211.22, -2347.49, -19495.97, 0.00, 0.00, 0.00
51, -6601.43, 47837.83, -4897.07, -19545.73, 300.23, -17174.48, -2321.65, -19483.95, -0.07, 0.91, 0.36
52, -6605.45, 47818.94, -4898.76, -19550.27, 303.49, -17141.04, -2322.59, -19489.11, 0.00, 0.00, 0.00
53, -6590.95, 47915.52, -4893.62, -19552.32, 311.63, -17152.44, -2331.38, -19492.06, 0.00, 0.00, 0.00
54, -6585.94, 47928.38, -4900.75, -19551.76, 301.17, -17187.75, -2344.12, -19489.78, 0.00, 0.00, 0.00
55, -6600.96, 47848.22, -4915.01, -19559.52, 283.40, -17174.12, -2351.34, -19492.55, 0.00, 0.00, 0.00
56, -6598.59, 47810.76, -4906.34, -19556.14, 285.92, -17129.48, -2342.51, -19489.36, 0.00, 0.00, 0.00
57, -6588.94, 47901.20, -4904.13, -19559.32, 278.68, -17131.94, -2353.55, -19500.44, 0.00, 0.00, 0.00
58, -6581.29, 47942.46, -4913.07, -19561.73, 263.46, -17173.89, -2373.17, -19504.27, 0.00, 0.00, 0.00
59, -6580.64, 47868.72, -4913.11, -19558.76, 260.26, -17168.84, -2377.49, -19497.65, 0.00, 0.00, 0.00
60, -6591.06, 47817.73, -4912.27, -19566.31, 264.20, -17128.01, -2375.34, -19502.07, 0.00, 0.00, 0.00
61, -6591.02, 47884.45, -4907.75, -19567.19, 263.77, -17131.43, -2384.19, -19505.72, -0.07, 0.92, 0.36
62, -6572.64, 47942.99, -4907.41, -19560.82, 252.82, -17173.18, -2400.35, -19497.00, 0.00, 0.00, 0.00
63, -6564.77, 47884.03, -4913.07, -19558.78, 245.74, -17179.46, -2399.62, -19488.17, 0.00, 0.00, 0.00
64, -6569.24, 47817.40, -4903.15, -19555.56, 271.82, -17131.23, -2372.06, -19480.06, 0.00, 0.00, 0.00
65, -6587.39, 47875.89, -4908.33, -19575.75, 277.72, -17123.85, -2377.80, -19502.66, 0.00, 0.00, 0.00
66, -6576.46, 47947.64, -4912.96, -19572.44, 274.59, -17181.76, -2386.41, -19499.93, 0.00, 0.00, 0.00
67, -6576.29, 47892.07, -4914.14, -19559.79, 268.42, -17201.57, -2379.14, -19486.67, 0.00, 0.00, 0.00
68, -6577.65, 47815.99, -4908.11, -19553.35, 271.22, -17161.47, -2358.80, -19478.88, 0.00, 0.00, 0.00
69, -6582.75, 47853.86, -4904.98, -19558.38, 274.50, -17134.85, -2350.26, -19490.14, 0.00, 0.00, 0.00
70, -6573.78, 47932.06, -4903.77, -19554.38, 276.22, -17180.71, -2361.95, -19493.49, 0.00, 0.00, 0.00
71, -6578.59, 47909.87, -4914.19, -19559.12, 265.00, -17200.94, -2363.56, -19494.77, -0.07, 0.91, 0.36
72, -6587.60, 47820.28, -4917.36, -19562.94, 260.69, -17185.85, -2352.34, -19491.59, 0.00, 0.00, 0.00
73, -6594.48, 47824.71, -4907.84, -19567.48, 262.16, -17156.66, -2351.67, -19498.01, 0.00, 0.00, 0.00
74, -6598.66, 47919.32, -4913.52, -19583.68, 266.46, -17184.40, -2362.07, -19508.56, 0.00, 0.00, 0.00
75, -6579.82, 47898.80, -4908.15, -19569.11, 284.22, -17219.16, -2352.81, -19488.55, 0.00, 0.00, 0.00
76, -6581.67, 47819.12, -4906.68, -19567.61, 291.02, -17183.95, -2340.59, -19482.99, 0.00, 0.00, 0.00
77, -6601.12, 47803.52, -4913.29, -19580.96, 293.68, -17142.20, -2337.14, -19495.77, 0.00, 0.00, 0.00
78, -6599.46, 47886.00, -4924.69, -19592.80, 281.32, -17163.86, -2353.64, -19506.86, 0.00, 0.00, 0.00
79, -6586.77, 47896.08, -4931.69, -19585.85, 280.98, -17195.22, -2360.41, -19493.67, 0.00, 0.00, 0.00
80, -6586.48, 47821.69, -4931.71, -19577.11, 291.58, -17172.78, -2340.41, -19476.95, 0.00, 0.00, 0.00
81, -6602.84, 47786.78, -4941.66, -19584.06, 276.07, -17122.73, -2339.89, -19481.27, -0.07, 0.92, 0.36
82, -6608.16, 47866.50, -4951.89, -19596.42, 259.93, -17129.26, -2367.27, -19492.35, 0.00, 0.00, 0.00
83, -6610.77, 47912.48, -4965.64, -19601.38, 256.44, -17170.14, -2377.89, -19495.71, 0.00, 0.00, 0.00
84, -6575.70, 47830.79, -4939.76, -19563.92, 274.77, -17161.42, -2343.89, -19448.72, 0.00, 0.00, 0.00
85, -6576.91, 47787.04, -4928.76, -19563.52, 275.17, -17096.09, -2332.67, -19454.82, 0.00, 0.00, 0.00
86, -6581.52, 47856.34, -4939.82, -19580.93, 240.10, -17116.70, -2361.55, -19476.77, 0.00, 0.00, 0.00
87, -6577.63, 47922.45, -4939.60, -19581.07, 236.44, -17161.60, -2380.06, -19481.82, 0.00, 0.00, 0.00
88, -6571.73, 47865.66, -4935.02, -19575.14, 242.65, -17173.13, -2383.52, -19478.58, 0.00, 0.00, 0.00
89, -6573.22, 47801.37, -4917.38, -19565.04, 275.40, -17124.12, -2360.37, -19469.51, 0.00, 0.00, 0.00
90, -6578.88, 47850.52, -4912.82, -19570.76, 278.86, -17101.10, -2359.43, -19482.90, 0.00, 0.00, 0.00
91, -6578.99, 47936.15, -4927.20, -19582.32, 263.08, -17142.98, -2387.17, -19502.81, -0.08, 0.92, 0.35
92, -6555.36, 47888.23, -4919.89, -19560.50, 253.60, -17177.65, -2383.63, -19485.89, 0.00, 0.00, 0.00
93, -6546.27, 47821.18, -4900.06, -19535.56, 267.17, -17132.59, -2344.83, -19468.86, 0.00, 0.00, 0.00
94, -6551.74, 47853.30, -4893.60, -19539.49, 279.02, -17105.92, -2338.82, -19480.84, 0.00, 0.00, 0.00
95, -6554.74, 47944.00, -4897.51, -19548.66, 263.73, -17153.22, -2361.77, -19497.16, 0.00, 0.00, 0.00
96, -6553.35, 47918.81, -4891.23, -19535.09, 283.29, -17188.98, -2365.91, -19484.44, 0.00, 0.00, 0.00
97, -6551.79, 47834.59, -4880.79, -19525.01, 288.32, -17144.12, -2355.72, -19477.31, 0.00, 0.00, 0.00
98, -6559.21, 47845.29, -4880.77, -19532.61, 305.64, -17104.45, -2356.14, -19492.60, 0.00, 0.00, 0.00
99, -6552.79, 47942.39, -4881.15, -19534.78, 316.19, -17137.71, -2371.54, -19495.10, 0.00, 0.00, 0.00
100, -6541.04, 47940.49, -4885.51, -19530.93, 303.42, -17184.18, -2376.15, -19485.89, 0.00, 0.00, 0.00
101, -6549.08, 47861.41, -4895.08, -19539.38, 298.93, -17164.33, -2355.34, -19482.09, -0.08, 0.91, 0.34
102, -6560.95, 47836.78, -4895.72, -19545.24, 307.34, -17132.10, -2323.06, -19475.50, 0.00, 0.00, 0.00
103, -6570.12, 47917.80, -4901.87, -19553.55, 297.75, -17146.40, -2332.00, -19477.02, 0.00, 0.00, 0.00
104, -6564.64, 47929.43, -4912.38, -19556.64, 281.81, -17188.94, -2345.68, -19467.03, 0.00, 0.00, 0.00
105, -6562.29, 47845.36, -4910.01, -19551.94, 299.42, -17181.16, -2332.43, -19453.39, 0.00, 0.00, 0.00
106, -6577.43, 47804.75, -4912.60, -19555.74, 314.06, -17130.91, -2322.82, -19455.05, 0.00, 0.00, 0.00
107, -6581.14, 47885.44, -4917.09, -19567.81, 311.90, -17124.54, -2328.98, -19466.20, 0.00, 0.00, 0.00
108, -6571.86, 47932.87, -4924.58, -19571.25, 304.86, -17169.96, -2342.89, -19463.61, 0.00, 0.00, 0.00
109, -6577.16, 47860.80, -4924.11, -19562.29, 291.11, -17156.73, -2337.41, -19448.68, 0.00, 0.00, 0.00
110, -6579.10, 47787.67, -4917.03, -19547.92, 288.76, -17102.97, -2316.07, -19434.19, 0.00, 0.00, 0.00
111, -6568.60, 47862.10, -4902.25, -19551.16, 313.24, -17072.84, -2317.07, -19441.64, -0.08, 0.91, 0.35
112, -6564.73, 47934.61, -4913.81, -19563.95, 302.89, -17124.83, -2348.32, -19450.76, 0.00, 0.00, 0.00
113, -6563.52, 47871.80, -4915.91, -19555.00, 287.31, -17132.07, -2353.91, -19436.23, 0.00, 0.00, 0.00
114, -6579.73, 47794.91, -4913.63, -19557.98, 278.35, -17093.45, -2335.62, -19432.49, 0.00, 0.00, 0.00
115, -6578.61, 47837.00, -4910.88, -19562.92, 290.80, -17087.26, -2338.48, -19444.43, 0.00, 0.00, 0.00
116, -6556.19, 47924.46, -4904.35, -19556.37, 289.99, -17122.53, -2347.98, -19443.69, 0.00, 0.00, 0.00
117, -6546.18, 47889.32, -4902.61, -19545.37, 282.28, -17138.06, -2348.32, -19432.54, 0.00, 0.00, 0.00
118, -6548.97, 47805.66, -4889.49, -19534.80, 294.57, -17100.29, -2325.94, -19421.45, 0.00, 0.00, 0.00
119, -6563.46, 47825.20, -4893.04, -19550.89, 293.28, -17079.79, -2333.21, -19448.45, 0.00, 0.00, 0.00
120, -6546.49, 47920.26, -4892.57, -19551.56, 292.81, -17121.23, -2349.97, -19457.69, 0.00, 0.00, 0.00
121, -6537.57, 47901.91, -4895.66, -19543.22, 281.86, -17166.52, -2353.77, -19452.77, -0.08, 0.91, 0.35
122, -6544.57, 47821.80, -4896.17, -19544.05, 283.62, -17152.91, -2342.33, -19453.66, 0.00, 0.00, 0.00
123, -6546.51, 47820.86, -4888.64, -19547.65, 285.52, -17124.86, -2331.98, -19461.60, 0.00, 0.00, 0.00
124, -6557.42, 47913.69, -4899.99, -19568.73, 269.79, -17151.70, -2352.41, -19485.56, 0.00, 0.00, 0.00
125, -6541.53, 47901.75, -4902.48, -19559.50, 269.27, -17203.51, -2361.22, -19473.64, 0.00, 0.00, 0.00
126, -6556.15, 47827.19, -4912.31, -19570.54, 263.55, -17174.39, -2358.15, -19482.27, 0.00, 0.00, 0.00
127, -6561.15, 47796.21, -4904.31, -19569.44, 267.42, -17126.67, -2344.30, -19480.64, 0.00, 0.00, 0.00
128, -6574.23, 47886.27, -4912.06, -19586.05, 258.30, -17134.80, -2355.47, -19497.18, 0.00, 0.00, 0.00
129, -6565.06, 47907.18, -4923.73, -19586.10, 257.96, -17187.87, -2369.49, -19492.93, 0.00, 0.00, 0.00
130, -6569.71, 47829.63, -4928.60, -19591.48, 267.51, -17188.83, -2361.71, -19488.53, 0.00, 0.00, 0.00
131, -6570.43, 47776.76, -4918.99, -19583.53, 288.16, -17153.58, -2333.77, -19481.38, -0.08, 0.91, 0.35
132, -6567.32, 47854.50, -4920.54, -19590.50, 299.47, -17150.98, -2336.63, -19491.17, 0.00, 0.00, 0.00
133, -6553.11, 47899.03, -4928.13, -19585.09, 282.08, -17196.89, -2356.79, -19483.19, 0.00, 0.00, 0.00
134, -6557.08, 47836.00, -4930.08, -19575.25, 275.17, -17181.56, -2357.71, -19470.96, 0.00, 0.00, 0.00
135, -6568.33, 47775.18, -4923.93, -19569.11, 280.38, -17132.77, -2345.50, -19464.88, 0.00, 0.00, 0.00
136, -6569.67, 47832.22, -4919.89, -19572.33, 276.47, -17118.51, -2359.70, -19474.09, 0.00, 0.00, 0.00
137, -6569.58, 47901.60, -4933.30, -19585.36, 253.18, -17173.13, -2389.00, -19485.47, 0.00, 0.00, 0.00
138, -6560.04, 47844.18, -4934.57, -19575.52, 245.18, -17197.03, -2380.57, -19472.17, 0.00, 0.00, 0.00
139, -6566.16, 47772.58, -4932.56, -19573.11, 250.88, -17156.91, -2356.70, -19465.51, 0.00, 0.00, 0.00
140, -6559.41, 47807.25, -4918.01, -19566.22, 264.26, -17116.61, -2343.98, -19461.02, 0.00, 0.00, 0.00
141, -6552.95, 47893.33, -4916.96, -19569.38, 265.96, -17141.02, -2357.13, -19464.66, -0.09, 0.91, 0.34
142, -6548.19, 47854.48, -4920.94, -19565.84, 256.62, -17164.73, -2367.85, -19455.47, 0.00, 0.00, 0.00
143, -6553.89, 47772.40, -4915.42, -19561.69, 259.70, -17129.75, -2348.27, -19443.98, 0.00, 0.00, 0.00
144, -6567.93, 47786.69, -4910.81, -19572.44, 272.94, -17112.45, -2334.75, -19455.20, 0.00, 0.00, 0.00
145, -6556.75, 47874.46, -4910.14, -19572.48, 268.29, -17144.28, -2346.02, -19458.45, 0.00, 0.00, 0.00
146, -6549.08, 47860.22, -4915.80, -19566.40, 252.40, -17173.04, -2356.81, -19455.05, 0.00, 0.00, 0.00
147, -6559.88, 47787.60, -4917.14, -19563.90, 254.45, -17148.91, -2349.30, -19461.37, 0.00, 0.00, 0.00
148, -6563.72, 47783.31, -4917.03, -19566.02, 270.68, -17123.13, -2344.79, -19475.34, 0.00, 0.00, 0.00
149, -6552.53, 47880.54, -4919.04, -19571.75, 269.76, -17152.55, -2359.45, -19492.62, 0.00, 0.00, 0.00
150, -6555.36, 47879.11, -4932.67, -19575.90, 251.28, -17213.14, -2377.09, -19498.12, 0.00, 0.00, 0.00
151, -6545.42, 47795.00, -4923.89, -19561.26, 261.20, -17195.46, -2355.27, -19482.16, -0.08, 0.92, 0.34
152, -6549.11, 47764.58, -4916.56, -19561.62, 276.36, -17144.37, -2329.99, -19483.70, 0.00, 0.00, 0.00
153, -6569.09, 47845.74, -4930.71, -19582.68, 266.70, -17160.30, -2343.00, -19505.07, 0.00, 0.00, 0.00
154, -6565.31, 47866.82, -4933.68, -19575.54, 272.76, -17211.00, -2348.90, -19495.28, 0.00, 0.00, 0.00
155, -6557.64, 47798.29, -4927.24, -19565.49, 286.42, -17202.30, -2324.67, -19479.52, 0.00, 0.00, 0.00
156, -6569.31, 47760.31, -4932.78, -19576.26, 279.75, -17153.31, -2314.55, -19491.68, 0.00, 0.00, 0.00
157, -6568.22, 47816.37, -4933.34, -19577.49, 274.03, -17151.03, -2328.65, -19495.06, 0.00, 0.00, 0.00
158, -6568.95, 47867.91, -4946.71, -19582.85, 261.60, -17195.15, -2352.83, -19496.26, 0.00, 0.00, 0.00
159, -6564.55, 47801.08, -4949.99, -19574.52, 251.50, -17199.94, -2362.98, -19484.78, 0.00, 0.00, 0.00
160, -6572.57, 47739.93, -4949.10, -19573.36, 240.01, -17159.05, -2356.88, -19489.47, 0.00, 0.00, 0.00
161, -6567.10, 47794.58, -4937.77, -19568.59, 236.68, -17154.31, -2351.22, -19487.93, -0.08, 0.92, 0.34
162, -6550.29, 47871.24, -4935.49, -19567.41, 246.43, -17193.50, -2357.82, -19481.69, 0.00, 0.00, 0.00
163, -6558.72, 47823.86, -4951.47, -19572.62, 224.50, -17206.30, -2372.44, -19486.90, 0.00, 0.00, 0.00
164, -6568.04, 47742.81, -4935.60, -19562.71, 244.06, -17161.09, -2355.07, -19472.10, 0.00, 0.00, 0.00
165, -6579.17, 47776.27, -4925.97, -19572.91, 252.75, -17119.00, -2355.36, -19481.60, 0.00, 0.00, 0.00
166, -6562.67, 47856.63, -4925.43, -19573.53, 255.01, -17150.40, -2368.14, -19481.13, 0.00, 0.00, 0.00
167, -6567.86, 47833.47, -4938.86, -19579.61, 242.25, -17183.06, -2379.48, -19483.50, 0.00, 0.00, 0.00
168, -6571.73, 47750.61, -4933.23, -19568.86, 246.61, -17160.48, -2361.37, -19470.40, 0.00, 0.00, 0.00
169, -6586.21, 47755.89, -4924.85, -19567.21, 248.95, -17125.12, -2348.94, -19472.44, 0.00, 0.00, 0.00
170, -6574.12, 47844.27, -4921.70, -19569.73, 272.31, -17166.83, -2354.24, -19476.30, 0.00, 0.00, 0.00
171, -6550.00, 47831.10, -4916.69, -19554.96, 270.66, -17205.05, -2353.26, -19459.79, -0.09, 0.92, 0.34
172, -6546.33, 47760.49, -4911.08, -19544.30, 268.91, -17170.12, -2335.22, -19452.30, 0.00, 0.00, 0.00
173, -6565.29, 47751.91, -4922.55, -19560.28, 260.87, -17139.47, -2335.51, -19470.87, 0.00, 0.00, 0.00
174, -6566.88, 47830.12, -4924.89, -19566.78, 240.48, -17157.06, -2344.83, -19476.21, 0.00, 0.00, 0.00
175, -6560.59, 47843.93, -4933.68, -19566.85, 219.96, -17201.05, -2346.49, -19476.01, 0.00, 0.00, 0.00
176, -6557.53, 47763.89, -4928.92, -19558.85, 230.36, -17186.63, -2331.47, -19470.04, 0.00, 0.00, 0.00
177, -6578.61, 47730.41, -4926.70, -19566.72, 268.58, -17134.69, -2325.77, -19484.22, 0.00, 0.00, 0.00
178, -6585.09, 47809.71, -4934.06, -19579.57, 277.79, -17134.71, -2334.21, -19504.18, 0.00, 0.00, 0.00
179, -6577.25, 47842.19, -4944.36, -19581.71, 273.76, -17184.51, -2345.88, -19502.75, 0.00, 0.00, 0.00
180, -6578.01, 47772.98, -4953.57, -19579.88, 265.56, -17172.84, -2345.66, -19496.67, 0.00, 0.00, 0.00
181, -6586.54, 47715.47, -4946.49, -19578.41, 272.11, -17113.84, -2329.92, -19491.97, -0.09, 0.93, 0.34
182, -6600.83, 47778.33, -4947.98, -19587.62, 271.80, -17092.15, -2330.06, -19496.73, 0.00, 0.00, 0.00
183, -6595.31, 47830.92, -4950.96, -19585.38, 267.73, -17128.90, -2339.11, -19490.74, 0.00, 0.00, 0.00
184, -6585.20, 47766.68, -4941.57, -19570.54, 267.15, -17130.60, -2333.66, -19474.07, 0.00, 0.00, 0.00
185, -6593.74, 47697.79, -4938.17, -19569.94, 246.76, -17088.82, -2323.26, -19478.11, 0.00, 0.00, 0.00
186, -6598.79, 47745.63, -4927.78, -19571.32, 263.04, -17065.82, -2325.83, -19492.38, 0.00, 0.00, 0.00
187, -6591.75, 47826.94, -4920.98, -19563.90, 260.29, -17103.44, -2346.69, -19496.89, 0.00, 0.00, 0.00
188, -6569.96, 47774.04, -4903.59, -19534.62, 253.65, -17121.32, -2339.58, -19464.88, 0.00, 0.00, 0.00
189, -6582.90, 47712.23, -4901.31, -19537.05, 254.43, -17046.04, -2334.01, -19472.08, 0.00, 0.00, 0.00
190, -6591.91, 47744.69, -4901.36, -19545.15, 257.00, -17011.26, -2345.84, -19490.25, 0.00, 0.00, 0.00
191, -6584.78, 47823.63, -4899.08, -19542.13, 247.59, -17062.56, -2357.59, -19490.77, -0.09, 0.92, 0.34
192, -6576.33, 47798.38, -4891.99, -19529.25, 250.21, -17084.09, -2358.31, -19475.77, 0.00, 0.00, 0.00
193, -6585.09, 47722.27, -4890.79, -19531.04, 254.99, -17053.02, -2343.67, -19476.26, 0.00, 0.00, 0.00
194, -6585.20, 47726.80, -4883.45, -19533.77, 254.39, -17022.10, -2332.72, -19482.29, 0.00, 0.00, 0.00
195, -6581.56, 47816.71, -4883.52, -19540.77, 247.52, -17050.38, -2345.12, -19487.05, 0.00, 0.00, 0.00
196, -6584.22, 47808.32, -4883.95, -19535.89, 246.99, -17087.88, -2354.33, -19480.10, 0.00, 0.00, 0.00
197, -6599.15, 47730.81, -4890.05, -19541.41, 233.44, -17069.22, -2348.34, -19482.72, 0.00, 0.00, 0.00
198, -6599.89, 47704.90, -4884.17, -19544.70, 233.04, -17037.19, -2334.08, -19483.77, 0.00, 0.00, 0.00
199, -6598.23, 47789.86, -4882.83, -19546.42, 236.35, -17050.07, -2335.31, -19487.05, 0.00, 0.00, 0.00
200, -6589.16, 47801.71, -4890.20, -19543.11, 227.09, -17101.21, -2349.57, -19484.69, 0.00, 0.00, 0.00
201, -6589.67, 47725.87, -4888.06, -19537.82, 239.21, -17079.26, -2336.81, -19476.91, -0.08, 0.91, 0.34
202, -6594.35, 47687.76, -4885.42, -19540.25, 255.59, -17033.55, -2321.97, -19480.53, 0.00, 0.00, 0.00
203, -6588.15, 47769.61, -4874.58, -19536.70, 269.41, -17023.85, -2313.61, -19479.59, 0.00, 0.00, 0.00
204, -6594.52, 47807.72, -4889.51, -19547.18, 247.23, -17080.73, -2332.54, -19487.01, 0.00, 0.00, 0.00
205, -6598.77, 47735.37, -4891.39, -19538.53, 237.44, -17093.38, -2320.51, -19475.19, 0.00, 0.00, 0.00
206, -6614.93, 47677.05, -4895.41, -19550.09, 258.48, -17045.78, -2304.38, -19478.90, 0.00, 0.00, 0.00
207, -6617.70, 47727.75, -4894.12, -19560.53, 279.24, -17035.47, -2317.21, -19488.62, 0.00, 0.00, 0.00
208, -6607.76, 47786.66, -4893.60, -19556.72, 286.12, -17079.73, -2324.72, -19481.47, 0.00, 0.00, 0.00
209, -6607.49, 47734.63, -4899.64, -19554.58, 273.50, -17092.13, -2328.02, -19474.22, 0.00, 0.00, 0.00
210, -6610.08, 47665.90, -4893.29, -19548.72, 277.18, -17050.22, -2318.37, -19464.59, 0.00, 0.00, 0.00
211, -6622.64, 47712.03, -4889.60, -19561.22, 283.78, -17026.35, -2324.18, -19480.10, -0.08, 0.91, 0.35
212, -6607.09, 47780.29, -4896.55, -19562.29, 272.89, -17077.34, -2351.36, -19480.39, 0.00, 0.00, 0.00
213, -6595.04, 47744.91, -4894.90, -19552.72, 264.47, -17085.52, -2361.42, -19471.28, 0.00, 0.00, 0.00
214, -6611.29, 47672.04, -4898.76, -19556.52, 259.68, -17046.27, -2348.63, -19472.93, 0.00, 0.00, 0.00
215, -6631.32, 47685.46, -4901.67, -19571.16, 261.25, -17013.50, -2345.75, -19489.78, 0.00, 0.00, 0.00
216, -6608.18, 47765.43, -4896.51, -19569.49, 260.17, -17056.30, -2364.70, -19493.27, 0.00, 0.00, 0.00
217, -6591.91, 47752.73, -4890.18, -19555.81, 260.71, -17082.50, -2370.47, -19481.49, 0.00, 0.00, 0.00
218, -6601.01, 47687.94, -4887.99, -19553.46, 260.55, -17058.94, -2354.76, -19478.67, 0.00, 0.00, 0.00
219, -6611.29, 47685.12, -4884.71, -19561.60, 269.54, -17024.92, -2338.55, -19482.27, 0.00, 0.00, 0.00
220, -6605.16, 47769.83, -4882.85, -19567.41, 264.38, -17056.93, -2344.79, -19485.33, 0.00, 0.00, 0.00
221, -6598.48, 47764.63, -4888.97, -19560.70, 255.19, -17098.68, -2354.29, -19478.18, -0.09, 0.92, 0.36
222, -6608.00, 47683.82, -4887.59, -19557.87, 266.92, -17069.07, -2345.10, -19471.86, 0.00, 0.00, 0.00
223, -6613.10, 47655.68, -4881.53, -19563.16, 281.16, -17037.08, -2335.44, -19477.38, 0.00, 0.00, 0.00
224, -6607.42, 47739.28, -4873.93, -19566.92, 284.60, -17063.86, -2341.03, -19484.26, 0.00, 0.00, 0.00
225, -6600.16, 47762.10, -4873.64, -19557.53, 274.50, -17111.40, -2345.79, -19473.69, 0.00, 0.00, 0.00
226, -6603.22, 47689.48, -4873.60, -19548.54, 277.74, -17101.27, -2330.37, -19462.36, 0.00, 0.00, 0.00
227, -6619.07, 47642.70, -4881.42, -19561.71, 273.34, -17056.53, -2329.70, -19476.46, 0.00, 0.00, 0.00
228, -6619.04, 47705.30, -4887.05, -19568.77, 277.18, -17063.41, -2332.65, -19482.54, 0.00, 0.00, 0.00
229, -6618.37, 47760.63, -4896.75, -19574.74, 281.97, -17098.46, -2344.97, -19485.33, 0.00, 0.00, 0.00
230, -6623.38, 47691.42, -4904.73, -19567.32, 282.17, -17105.34, -2340.45, -19473.38, 0.00, 0.00, 0.00
231, -6633.37, 47623.74, -4901.89, -19561.66, 287.02, -17055.79, -2318.66, -19466.96, -0.09, 0.91, 0.36
232, -6643.43, 47674.44, -4903.46, -19571.34, 280.31, -17051.77, -2318.48, -19476.46, 0.00, 0.00, 0.00
233, -6637.98, 47735.14, -4909.65, -19576.55, 261.83, -17105.59, -2335.47, -19480.08, 0.00, 0.00, 0.00
234, -6621.53, 47683.33, -4901.96, -19559.21, 265.70, -17110.60, -2335.82, -19460.48, 0.00, 0.00, 0.00
235, -6633.37, 47612.30, -4907.97, -19566.52, 260.44, -17067.48, -2334.66, -19465.62, 0.00, 0.00, 0.00
236, -6636.30, 47648.06, -4906.21, -19576.26, 279.40, -17060.44, -2333.37, -19478.18, 0.00, 0.00, 0.00
237, -6633.04, 47728.86, -4913.14, -19584.13, 283.64, -17102.75, -2350.44, -19488.15, 0.00, 0.00, 0.00
238, -6635.81, 47692.86, -4921.34, -19583.59, 268.60, -17128.90, -2365.26, -19482.94, 0.00, 0.00, 0.00
239, -6635.58, 47608.90, -4913.67, -19573.67, 263.73, -17095.84, -2356.95, -19476.77, 0.00, 0.00, 0.00
240, -6631.02, 47620.46, -4906.23, -19571.52, 246.85, -17057.89, -2353.97, -19480.24, 0.00, 0.00, 0.00
241, -6619.33, 47713.02, -4896.28, -19566.40, 250.14, -17078.86, -2361.62, -19479.59, -0.09, 0.90, 0.36
242, -6618.42, 47706.76, -4900.49, -19562.40, 267.15, -17097.05, -2366.31, -19472.55, 0.00, 0.00, 0.00
243, -6618.11, 47625.60, -4893.27, -19552.77, 279.35, -17069.33, -2345.01, -19456.72, 0.00, 0.00, 0.00
244, -6624.88, 47620.23, -4888.82, -19556.14, 288.20, -17023.98, -2333.03, -19458.98, 0.00, 0.00, 0.00
245, -6625.79, 47707.61, -4896.71, -19564.15, 273.90, -17047.09, -2349.55, -19472.32, 0.00, 0.00, 0.00
246, -6623.00, 47706.60, -4906.74, -19567.88, 263.82, -17101.79, -2370.00, -19479.14, 0.00, 0.00, 0.00
247, -6628.21, 47636.06, -4907.75, -19560.39, 267.51, -17077.65, -2364.39, -19478.11, 0.00, 0.00, 0.00
248, -6631.90, 47607.31, -4908.62, -19564.55, 269.87, -17034.62, -2350.87, -19482.05, 0.00, 0.00, 0.00
249, -6625.37, 47687.02, -4902.39, -19566.36, 278.01, -17045.13, -2348.18, -19483.39, 0.00, 0.00, 0.00
250, -6614.77, 47719.92, -4905.34, -19561.91, 283.42, -17089.88, -2345.68, -19477.44, 0.00, 0.00, 0.00
251, -6613.25, 47647.05, -4907.08, -19557.24, 291.49, -17076.67, -2328.29, -19468.30, -0.08, 0.90, 0.37
252, -6630.24, 47596.00, -4915.95, -19569.85, 284.49, -17034.87, -2325.18, -19482.45, 0.00, 0.00, 0.00
253, -6636.72, 47658.79, -4921.00, -19579.48, 273.67, -17045.22, -2340.25, -19497.11, 0.00, 0.00, 0.00
254, -6631.92, 47715.34, -4927.22, -19579.32, 256.84, -17090.01, -2356.37, -19499.86, 0.00, 0.00, 0.00
255, -6626.29, 47650.70, -4924.40, -19573.22, 264.22, -17099.89, -2345.17, -19487.52, 0.00, 0.00, 0.00
0, -6639.79, 47589.16, -4923.58, -19579.99, 272.71, -17067.05, -2330.30, -19492.22, 0.00, 0.00, 0.00
1, -6633.62, 47637.31, -4913.05, -19573.69, 267.86, -17053.13, -2328.49, -19484.69, 0.00, 0.00, 0.00
2, -6635.70, 47710.76, -4925.23, -19582.52, 250.59, -17073.54, -2345.84, -19491.53, 0.00, 0.00, 0.00
3, -6636.17, 47659.41, -4933.05, -19575.14, 251.32, -17077.54, -2342.49, -19476.24, 0.00, 0.00, 0.00
4, -6648.71, 47579.22, -4938.77, -19580.31, 255.41, -17040.19, -2334.28, -19476.44, 0.00, 0.00, 0.00
5, -6645.49, 47600.83, -4925.14, -19575.79, 266.05, -17013.63, -2336.83, -19473.33, -0.09, 0.89, 0.37
6, -6649.96, 47690.80, -4931.49, -19587.32, 268.36, -17042.67, -2364.10, -19486.74, 0.00, 0.00, 0.00
7, -6645.89, 47657.58, -4933.16, -19583.95, 256.17, -17078.45, -2374.65, -19481.91, 0.00, 0.00, 0.00
8, -6653.71, 47581.43, -4928.81, -19583.73, 257.49, -17040.66, -2358.29, -19481.02, 0.00, 0.00, 0.00
9, -6646.27, 47583.04, -4915.01, -19579.95, 272.56, -17015.80, -2348.88, -19487.19, 0.00, 0.00, 0.00
10, -6632.54, 47677.45, -4910.32, -19577.33, 268.38, -17041.77, -2360.59, -19494.59, 0.00, 0.00, 0.00
11, -6621.39, 47673.21, -4909.81, -19568.33, 274.17, -17084.09, -2353.26, -19476.13, 0.00, 0.00, 0.00
12, -6629.66, 47605.95, -4917.79, -19569.18, 274.59, -17067.70, -2346.69, -19480.42, 0.00, 0.00, 0.00
13, -6637.17, 47596.70, -4915.35, -19566.74, 279.02, -17019.22, -2341.28, -19489.04, 0.00, 0.00, 0.00
14, -6628.10, 47673.27, -4908.82, -19564.23, 284.29, -17030.04, -2350.76, -19492.44, 0.00, 0.00, 0.00
15, -6618.82, 47685.95, -4914.48, -19562.13, 279.22, -17071.81, -2367.39, -19493.83, -0.09, 0.90, 0.37
16, -6609.86, 47615.70, -4909.14, -19550.20, 285.12, -17049.60, -2351.11, -19485.29, 0.00, 0.00, 0.00
17, -6620.14, 47588.79, -4904.29, -19547.52, 293.12, -17009.01, -2336.58, -19491.08, 0.00, 0.00, 0.00
18, -6628.57, 47671.26, -4906.79, -19556.81, 287.71, -17016.25, -2345.64, -19506.97, 0.00, 0.00, 0.00
19, -6635.36, 47700.03, -4923.75, -19569.44, 279.29, -17083.57, -2370.16, -19512.56, 0.00, 0.00, 0.00
20, -6632.59, 47619.59, -4918.01, -19555.85, 283.42, -17080.51, -2353.44, -19491.21, 0.00, 0.00, 0.00
21, -6642.96, 47564.09, -4915.26, -19557.37, 284.43, -17035.02, -2331.53, -19489.42, 0.00, 0.00, 0.00
22, -6643.92, 47625.22, -4913.14, -19568.04, 288.29, -17034.80, -2329.07, -19493.27, 0.00, 0.00, 0.00
23, -6635.99, 47684.88, -4918.66, -19568.15, 286.64, -17071.72, -2340.50, -19484.22, 0.00, 0.00, 0.00
24, -6627.43, 47621.08, -4920.45, -19552.99, 279.87, -17072.84, -2328.65, -19459.52, 0.00, 0.00, 0.00
25, -6631.20, 47548.11, -4907.06, -19548.97, 302.55, -17022.71, -2304.78, -19447.96, -0.09, 0.91, 0.37
26, -6641.51, 47596.99, -4907.64, -19564.53, 315.00, -17009.34, -2311.93, -19463.14, 0.00, 0.00, 0.00
27, -6635.43, 47675.24, -4915.53, -19570.31, 298.53, -17044.77, -2320.92, -19459.74, 0.00, 0.00, 0.00
28, -6634.31, 47625.73, -4927.71, -19570.27, 270.86, -17056.59, -2336.05, -19456.77, 0.00, 0.00, 0.00
29, -6631.74, 47543.46, -4930.86, -19567.88, 261.81, -17020.83, -2330.86, -19448.65, 0.00, 0.00, 0.00
30, -6628.68, 47567.24, -4922.61, -19574.61, 280.38, -16996.51, -2332.49, -19459.65, 0.00, 0.00, 0.00
31, -6625.66, 47654.21, -4920.80, -19580.66, 297.57, -17044.95, -2355.29, -19467.41, 0.00, 0.00, 0.00
32, -6608.00, 47631.12, -4912.51, -19566.09, 301.50, -17078.56, -2360.88, -19450.04, 0.00, 0.00, 0.00
33, -6613.59, 47552.17, -4911.55, -19567.21, 296.14, -17046.76, -2352.21, -19448.30, 0.00, 0.00, 0.00
34, -6627.05, 47559.23, -4912.29, -19577.89, 295.49, -17003.82, -2346.40, -19469.80, 0.00, 0.00, 0.00
35, -6616.09, 47640.15, -4908.02, -19575.01, 296.16, -17041.21, -2352.59, -19473.31, -0.09, 0.91, 0.36
36, -6595.19, 47639.93, -4905.78, -19569.18, 287.62, -17073.09, -2361.75, -19471.19, 0.00, 0.00, 0.00
37, -6596.87, 47564.82, -4907.10, -19568.28, 280.16, -17057.13, -2359.74, -19477.53, 0.00, 0.00, 0.00
38, -6599.96, 47542.27, -4893.94, -19563.27, 288.74, -17020.36, -2344.23, -19483.72, 0.00, 0.00, 0.00
39, -6595.93, 47630.79, -4890.23, -19566.25, 294.64, -17039.99, -2359.56, -19498.92, 0.00, 0.00, 0.00
40, -6577.65, 47646.95, -4887.68, -19553.91, 295.45, -17094.19, -2362.18, -19486.96, 0.00, 0.00, 0.00
41, -6588.31, 47575.30, -4893.78, -19554.11, 301.50, -17076.93, -2351.14, -19484.26, 0.00, 0.00, 0.00
42, -6600.40, 47533.42, -4889.60, -19550.38, 309.48, -17034.46, -2336.79, -19486.50, 0.00, 0.00, 0.00
43, -6596.04, 47606.20, -4881.38, -19544.54, 313.77, -17028.32, -2337.57, -19486.65, 0.00, 0.00, 0.00
44, -6606.30, 47651.53, -4904.91, -19560.03, 289.63, -17069.40, -2358.38, -19496.96, 0.00, 0.00, 0.00
45, -6607.76, 47578.91, -4910.97, -19555.94, 285.66, -17083.84, -2351.98, -19484.93, -0.08, 0.91, 0.36
46, -6608.27, 47517.64, -4900.02, -19548.84, 308.52, -17039.92, -2323.78, -19472.15, 0.00, 0.00, 0.00
47, -6618.04, 47577.74, -4905.78, -19562.22, 314.06, -17029.55, -2325.27, -19483.48, 0.00, 0.00, 0.00
48, -6610.28, 47638.90, -4917.61, -19568.93, 300.59, -17084.76, -2343.20, -19487.61, 0.00, 0.00, 0.00
49, -6604.94, 47582.53, -4922.26, -19564.73, 287.13, -17106.10, -2337.68, -19467.65, 0.00, 0.00, 0.00
50, -6614.02, 47509.23, -4920.56, -19563.12, 297.66, -17039.49, -2321.47, -19456.99, 0.00, 0.00, 0.00
51, -6618.60, 47546.38, -4917.16, -19567.63, 311.70, -17013.90, -2323.71, -19464.50, 0.00, 0.00, 0.00
52, -6627.87, 47625.69, -4928.38, -19574.67, 297.23, -17045.15, -2346.69, -19470.47, 0.00, 0.00, 0.00
53, -6627.25, 47586.59, -4940.88, -19570.43, 266.25, -17074.61, -2354.87, -19463.50, 0.00, 0.00, 0.00
54, -6614.10, 47504.27, -4926.46, -19554.38, 269.70, -17037.53, -2332.38, -19438.55, 0.00, 0.00, 0.00
55, -6616.74, 47533.64, -4920.04, -19563.41, 288.32, -17008.76, -2324.87, -19442.82, -0.08, 0.92, 0.35
56, -6610.42, 47627.57, -4923.84, -19564.73, 285.21, -17046.47, -2337.21, -19439.36, 0.00, 0.00, 0.00
57, -6602.06, 47610.36, -4926.48, -19557.44, 288.70, -17065.58, -2338.35, -19430.86, 0.00, 0.00, 0.00
58, -6595.96, 47516.99, -4925.97, -19552.43, 281.63, -17032.32, -2329.10, -19427.82, 0.00, 0.00, 0.00
59, -6595.71, 47509.50, -4906.43, -19545.59, 289.68, -16975.75, -2316.78, -19430.08, 0.00, 0.00, 0.00
60, -6597.01, 47604.99, -4913.56, -19563.01, 286.24, -17000.85, -2340.12, -19451.20, 0.00, 0.00, 0.00
61, -6586.21, 47606.62, -4919.64, -19559.09, 274.05, -17060.66, -2348.86, -19446.96, 0.00, 0.00, 0.00
62, -6587.93, 47537.98, -4914.95, -19552.63, 270.81, -17049.75, -2327.38, -19440.00, 0.00, 0.00, 0.00
63, -6592.80, 47516.63, -4908.62, -19553.15, 282.32, -17014.39, -2312.94, -19446.17, 0.00, 0.00, 0.00
64, -6596.92, 47595.33, -4910.54, -19565.60, 282.41, -17035.47, -2326.62, -19465.46, 0.00, 0.00, 0.00
65, -6592.96, 47626.47, -4923.89, -19567.39, 273.54, -17086.72, -2342.89, -19468.46, -0.08, 0.91, 0.37
66, -6596.09, 47557.36, -4929.83, -19560.23, 273.63, -17082.79, -2339.51, -19464.59, 0.00, 0.00, 0.00
67, -6604.43, 47512.86, -4922.19, -19562.00, 282.55, -17049.29, -2328.40, -19467.50, 0.00, 0.00, 0.00
68, -6616.18, 47588.11, -4923.15, -19579.95, 282.70, -17055.83, -2337.21, -19488.02, 0.00, 0.00, 0.00
69, -6607.62, 47633.22, -4925.34, -19581.56, 272.71, -17110.93, -2348.88, -19486.61, 0.00, 0.00, 0.00
70, -6611.80, 47568.40, -4930.39, -19577.29, 272.69, -17118.11, -2344.50, -19479.92, 0.00, 0.00, 0.00
71, -6620.27, 47500.09, -4927.04, -19573.64, 291.80, -17064.44, -2328.05, -19476.77, 0.00, 0.00, 0.00
72, -6620.34, 47553.69, -4925.94, -19573.15, 297.52, -17048.21, -2323.49, -19478.34, 0.00, 0.00, 0.00
73, -6608.94, 47617.13, -4936.02, -19569.94, 281.81, -17087.77, -2334.13, -19470.89, 0.00, 0.00, 0.00
74, -6607.91, 47564.46, -4937.34, -19556.52, 282.41, -17094.50, -2326.01, -19453.42, 0.00, 0.00, 0.00
75, -6619.27, 47494.75, -4940.79, -19555.43, 300.12, -17044.72, -2297.85, -19447.29, -0.08, 0.91, 0.37
76, -6620.68, 47527.99, -4940.72, -19561.62, 313.46, -17020.05, -2286.52, -19450.98, 0.00, 0.00, 0.00
77, -6616.00, 47616.12, -4947.51, -19568.06, 295.87, -17047.59, -2305.98, -19458.94, 0.00, 0.00, 0.00
78, -6602.97, 47574.57, -4952.30, -19555.34, 282.15, -17086.92, -2315.91, -19443.58, 0.00, 0.00, 0.00
79, -6609.01, 47497.99, -4948.39, -19550.98, 288.38, -17043.16, -2299.95, -19437.28, 0.00, 0.00, 0.00
80, -6611.40, 47516.10, -4942.55, -19558.42, 296.38, -17010.37, -2299.37, -19444.72, 0.00, 0.00, 0.00
81, -6605.63, 47604.41, -4944.85, -19563.50, 280.78, -17042.11, -2325.99, -19453.71, 0.00, 0.00, 0.00
82, -6602.12, 47587.00, -4957.95, -19568.01, 264.73, -17078.86, -2353.88, -19456.66, 0.00, 0.00, 0.00
83, -6593.12, 47510.17, -4946.53, -19555.34, 272.40, -17048.77, -2341.61, -19440.41, 0.00, 0.00, 0.00
84, -6585.92, 47512.50, -4927.44, -19549.51, 296.03, -16997.41, -2316.69, -19433.84, 0.00, 0.00, 0.00
85, -6585.43, 47601.93, -4927.53, -19560.90, 293.32, -17007.58, -2326.15, -19450.04, -0.08, 0.92, 0.36
86, -6571.81, 47607.96, -4923.93, -19551.34, 287.62, -17044.57, -2338.86, -19446.06, 0.00, 0.00, 0.00
87, -6586.52, 47538.85, -4929.70, -19553.17, 280.96, -17031.16, -2341.66, -19454.76, 0.00, 0.00, 0.00
88, -6588.22, 47507.54, -4919.66, -19544.34, 291.78, -16993.85, -2327.08, -19455.20, 0.00, 0.00, 0.00
89, -6591.62, 47591.63, -4918.34, -19545.97, 294.22, -16985.22, -2327.13, -19466.63, 0.00, 0.00, 0.00
90, -6588.78, 47624.21, -4926.41, -19545.86, 280.20, -17027.27, -2342.95, -19468.99, 0.00, 0.00, 0.00
91, -6598.19, 47561.40, -4929.23, -19548.77, 272.33, -17019.49, -2345.86, -19468.86, 0.00, 0.00, 0.00
92, -6617.48, 47537.87, -4928.05, -19555.47, 269.99, -16962.04, -2335.24, -19476.66, 0.00, 0.00, 0.00
93, -6595.17, 47598.33, -4905.56, -19539.25, 293.90, -16957.08, -2324.16, -19465.89, 0.00, 0.00, 0.00
94, -6585.40, 47656.46, -4899.97, -19537.41, 301.39, -16992.62, -2331.53, -19468.97, 0.00, 0.00, 0.00
95, -6585.99, 47595.64, -4897.07, -19533.90, 303.65, -16990.61, -2332.78, -19468.06, -0.08, 0.91, 0.36
96, -6594.61, 47531.50, -4889.38, -19528.76, 316.97, -16939.07, -2313.14, -19465.78, 0.00, 0.00, 0.00
97, -6603.24, 47581.57, -4888.53, -19532.27, 317.13, -16916.16, -2313.38, -19475.88, 0.00, 0.00, 0.00
98, -6590.97, 47649.43, -4886.81, -19527.42, 308.30, -16946.15, -2319.06, -19469.84, 0.00, 0.00, 0.00
99, -6587.89, 47599.87, -4887.90, -19521.14, 305.86, -16957.73, -2316.40, -19458.00, 0.00, 0.00, 0.00
100, -6597.81, 47522.02, -4884.41, -19517.47, 319.65, -16916.89, -2295.32, -19448.36, 0.00, 0.00, 0.00
101, -6598.59, 47553.45, -4881.29, -19523.40, 323.43, -16881.33, -2287.50, -19455.90, 0.00, 0.00, 0.00
102, -6590.17, 47635.50, -4879.10, -19526.08, 325.66, -16905.32, -2295.08, -19458.73, 0.00, 0.00, 0.00
103, -6591.46, 47602.98, -4883.61, -19527.24, 319.74, -16935.49, -2311.64, -19455.18, 0.00, 0.00, 0.00
104, -6610.89, 47524.32, -4897.07, -19538.53, 305.53, -16907.73, -2317.21, -19461.33, 0.00, 0.00, 0.00
105, -6615.76, 47524.28, -4893.29, -19541.95, 317.98, -16885.65, -2309.36, -19461.82, -0.08, 0.91, 0.36
106, -6596.36, 47600.32, -4876.90, -19529.70, 324.01, -16896.49, -2306.19, -19447.63, 0.00, 0.00, 0.00
107, -6600.81, 47595.42, -4891.81, -19535.07, 294.69, -16939.40, -2323.49, -19452.21, 0.00, 0.00, 0.00
108, -6604.09, 47516.92, -4892.26, -19533.64, 273.36, -16920.87, -2319.42, -19445.66, 0.00, 0.00, 0.00
109, -6599.44, 47497.28, -4880.41, -19534.06, 290.13, -16882.09, -2312.15, -19451.02, 0.00, 0.00, 0.00
110, -6593.54, 47588.94, -4873.26, -19540.59, 297.21, -16897.18, -2329.14, -19461.60, 0.00, 0.00, 0.00
111, -6587.42, 47605.73, -4876.28, -19537.90, 286.15, -16941.17, -2346.51, -19460.57, 0.00, 0.00, 0.00
112, -6588.85, 47538.40, -4875.97, -19536.27, 289.54, -16924.79, -2336.23, -19459.32, 0.00, 0.00, 0.00
113, -6596.16, 47508.16, -4873.78, -19538.53, 297.50, -16879.50, -2328.98, -19471.07, 0.00, 0.00, 0.00
114, -6583.44, 47576.27, -4868.52, -19532.09, 295.29, -16900.67, -2338.51, -19474.22, 0.00, 0.00, 0.00
115, -6572.71, 47614.11, -4868.23, -19528.63, 280.16, -16949.24, -2346.24, -19471.99, -0.08, 0.91, 0.36
116, -6577.87, 47554.41, -4875.18, -19529.28, 269.54, -16949.53, -2341.61, -19469.75, 0.00, 0.00, 0.00
117, -6584.73, 47500.07, -4862.47, -19527.33, 296.52, -16901.27, -2325.52, -19471.25, 0.00, 0.00, 0.00
118, -6586.30, 47553.91, -4854.93, -19535.22, 308.88, -16904.11, -2330.19, -19482.88, 0.00, 0.00, 0.00
119, -6578.10, 47610.24, -4859.13, -19531.11, 301.21, -16953.17, -2341.68, -19481.09, 0.00, 0.00, 0.00
120, -6580.38, 47557.63, -4869.64, -19529.97, 285.81, -16964.39, -2342.84, -19475.68, 0.00, 0.00, 0.00
121, -6583.21, 47492.00, -4866.29, -19525.25, 311.83, -16918.62, -2310.68, -19466.00, 0.00, 0.00, 0.00
122, -6592.67, 47534.69, -4868.52, -19534.89, 321.62, -16896.04, -2303.30, -19479.39, 0.00, 0.00, 0.00
123, -6588.69, 47604.86, -4878.96, -19540.30, 309.04, -16940.97, -2317.34, -19481.56, 0.00, 0.00, 0.00
124, -6591.75, 47560.60, -4886.00, -19533.90, 298.69, -16956.81, -2315.91, -19468.66, 0.00, 0.00, 0.00
125, -6597.85, 47481.32, -4876.90, -19524.96, 311.25, -16903.75, -2286.56, -19451.29, -0.08, 0.91, 0.37
126, -6624.12, 47502.06, -4891.05, -19551.00, 305.30, -16871.86, -2287.30, -19468.82, 0.00, 0.00, 0.00
127, -6609.01, 47576.83, -4889.71, -19549.33, 297.14, -16915.02, -2299.73, -19461.44, 0.00, 0.00, 0.00
128, -6598.50, 47549.67, -4891.59, -19540.21, 298.64, -16936.01, -2301.07, -19441.84, 0.00, 0.00, 0.00
129, -6603.20, 47473.76, -4888.08, -19534.46, 316.90, -16891.35, -2284.82, -19427.11, 0.00, 0.00, 0.00
130, -6612.38, 47476.49, -4882.18, -19543.81, 330.38, -16852.39, -2275.50, -19428.61, 0.00, 0.00, 0.00
131, -6613.30, 47557.63, -4887.01, -19556.35, 313.95, -16887.05, -2298.61, -19439.51, 0.00, 0.00, 0.00
132, -6605.21, 47547.21, -4889.65, -19555.27, 287.51, -16933.59, -2311.30, -19434.21, 0.00, 0.00, 0.00
133, -6617.39, 47472.55, -4899.70, -19567.92, 275.40, -16928.21, -2303.53, -19437.50, 0.00, 0.00, 0.00
134, -6618.71, 47447.36, -4890.25, -19563.30, 300.81, -16888.84, -2294.23, -19435.76, 0.00, 0.00, 0.00
135, -6624.14, 47531.50, -4890.49, -19569.55, 306.29, -16889.54, -2316.00, -19453.73, -0.08, 0.91, 0.37
136, -6613.46, 47552.06, -4890.34, -19560.17, 302.28, -16930.98, -2335.09, -19447.83, 0.00, 0.00, 0.00
137, -6598.79, 47474.97, -4878.98, -19542.82, 302.37, -16921.25, -2317.67, -19433.32, 0.00, 0.00, 0.00
138, -6592.67, 47440.68, -4873.55, -19543.98, 309.93, -16885.22, -2306.07, -19441.81, 0.00, 0.00, 0.00
139, -6587.75, 47525.77, -4872.30, -19547.18, 315.23, -16888.62, -2317.70, -19459.07, 0.00, 0.00, 0.00
140, -6595.82, 47570.79, -4869.26, -19539.09, 315.85, -16935.18, -2324.22, -19458.24, 0.00, 0.00, 0.00
141, -6605.21, 47498.26, -4870.15, -19529.57, 302.62, -16952.68, -2321.05, -19453.55, 0.00, 0.00, 0.00
142, -6607.89, 47443.83, -4868.81, -19532.27, 309.84, -16914.68, -2313.56, -19466.04, 0.00, 0.00, 0.00
