%OpenBCI Raw EEG Data
%
%Sample Rate = 250.0 Hz
%First Column = SampleIndex
%Other Columns = EEG data in microvolts followed by Accel Data (in G) interleaved with Aux Data
0, -5852.63, 47394.88, -8866.80, -23879.11, -1087.86, -29229.42, -11576.77, -25552.42, -0.01, 0.47, 0.17
1, -5857.99, 47484.56, -8884.62, -23892.83, -1096.51, -29258.75, -11595.44, -25567.69, 0.00, 0.00, 0.00
2, -5854.46, 47352.73, -8894.90, -23884.11, -1122.21, -29273.43, -11595.06, -25558.75, 0.00, 0.00, 0.00
3, -5845.25, 47260.91, -8873.51, -23865.16, -1107.73, -29248.78, -11566.83, -25539.53, 0.00, 0.00, 0.00
4, -5848.04, 47385.92, -8854.31, -23867.77, -1075.92, -29230.47, -11556.50, -25546.72, 0.00, 0.00, 0.00
5, -5858.30, 47520.50, -8873.33, -23893.46, -1083.12, -29260.29, -11581.69, -25573.84, 0.00, 0.00, 0.00
6, -5862.01, 47440.55, -8896.08, -23897.61, -1114.59, -29280.85, -11597.56, -25573.46, 0.00, 0.00, 0.00
7, -5852.85, 47317.99, -8876.37, -23874.01, -1115.84, -29247.73, -11574.60, -25549.16, -0.04, 0.92, 0.33
8, -5852.83, 47412.09, -8851.33, -23869.76, -1081.76, -29217.02, -11551.00, -25547.64, 0.00, 0.00, 0.00
9, -5861.77, 47561.00, -8858.15, -23883.71, -1077.26, -29223.83, -11566.80, -25562.44, 0.00, 0.00, 0.00
10, -5861.25, 47515.83, -8876.03, -23883.26, -1111.62, -29231.37, -11578.45, -25556.02, 0.00, 0.00, 0.00
11, -5858.33, 47383.33, -8873.55, -23868.06, -1131.65, -29208.01, -11565.78, -25535.48, 0.00, 0.00, 0.00
12, -5845.99, 47433.42, -8845.32, -23851.57, -1100.64, -29169.27, -11539.36, -25518.18, 0.00, 0.00, 0.00
13, -5860.09, 47592.36, -8850.64, -23869.16, -1087.32, -29176.83, -11551.54, -25535.88, 0.00, 0.00, 0.00
14, -5860.92, 47581.68, -8868.88, -23872.98, -1111.60, -29189.37, -11564.73, -25532.38, 0.00, 0.00, 0.00
15, -5859.33, 47429.15, -8875.09, -23861.31, -1130.53, -29173.43, -11551.90, -25512.64, 0.00, 0.00, 0.00
16, -5868.36, 47444.73, -8863.61, -23860.15, -1119.20, -29142.52, -11543.87, -25511.01, 0.00, 0.00, 0.00
17, -5876.25, 47594.28, -8862.27, -23870.68, -1105.36, -29141.24, -11566.33, -25527.86, -0.05, 0.92, 0.33
18, -5858.64, 47618.56, -8867.21, -23861.38, -1108.96, -29148.71, -11565.62, -25513.44, 0.00, 0.00, 0.00
19, -5840.38, 47470.32, -8860.16, -23840.79, -1119.40, -29137.53, -11541.59, -25487.63, 0.00, 0.00, 0.00
20, -5845.96, 47454.61, -8847.80, -23843.54, -1108.80, -29118.22, -11542.13, -25491.96, 0.00, 0.00, 0.00
21, -5863.69, 47600.16, -8853.41, -23867.55, -1105.05, -29128.88, -11569.13, -25519.50, 0.00, 0.00, 0.00
22, -5859.60, 47649.11, -8865.35, -23876.38, -1119.76, -29154.36, -11587.34, -25530.01, 0.00, 0.00, 0.00
23, -5838.03, 47501.66, -8860.19, -23857.87, -1132.16, -29155.53, -11580.82, -25515.39, 0.00, 0.00, 0.00
24, -5827.08, 47428.93, -8836.40, -23843.03, -1124.49, -29138.13, -11564.81, -25512.48, 0.00, 0.00, 0.00
25, -5830.90, 47546.14, -8820.83, -23851.75, -1106.95, -29144.75, -11569.82, -25537.63, 0.00, 0.00, 0.00
26, -5831.46, 47632.93, -8829.97, -23865.20, -1118.44, -29182.15, -11593.33, -25562.93, 0.00, 0.00, 0.00
27, -5817.38, 47504.36, -8830.48, -23846.36, -1131.65, -29187.94, -11574.38, -25548.60, -0.05, 0.92, 0.34
28, -5816.35, 47391.15, -8818.54, -23840.08, -1127.51, -29174.05, -11555.36, -25549.36, 0.00, 0.00, 0.00
29, -5821.96, 47475.19, -8808.13, -23850.85, -1108.45, -29178.01, -11559.63, -25570.48, 0.00, 0.00, 0.00
30, -5827.41, 47581.09, -8816.67, -23863.84, -1111.44, -29202.60, -11580.01, -25586.69, 0.00, 0.00, 0.00
31, -5816.75, 47493.03, -8827.06, -23853.60, -1133.73, -29216.52, -11583.61, -25572.61, 0.00, 0.00, 0.00
32, -5812.03, 47358.67, -8817.25, -23837.98, -1129.48, -29201.53, -11557.68, -25551.98, 0.00, 0.00, 0.00
33, -5815.61, 47421.32, -8800.51, -23837.96, -1104.18, -29181.99, -11542.75, -25552.67, 0.00, 0.00, 0.00
34, -5830.09, 47549.18, -8812.87, -23859.01, -1102.75, -29200.79, -11566.85, -25572.23, 0.00, 0.00, 0.00
35, -5827.01, 47480.98, -8830.10, -23852.30, -1125.45, -29213.39, -11573.17, -25558.39, 0.00, 0.00, 0.00
36, -5815.75, 47314.33, -8821.63, -23832.14, -1129.41, -29184.02, -11536.54, -25526.94, 0.00, 0.00, 0.00
37, -5829.38, 47334.76, -8815.26, -23843.43, -1112.42, -29163.84, -11521.56, -25532.64, -0.04, 0.92, 0.34
38, -5848.67, 47458.70, -8830.53, -23869.23, -1102.61, -29174.64, -11539.62, -25552.65, 0.00, 0.00, 0.00
39, -5846.17, 47430.47, -8848.81, -23867.26, -1114.59, -29188.47, -11545.70, -25537.63, 0.00, 0.00, 0.00
40, -5834.61, 47256.37, -8848.88, -23846.76, -1114.86, -29168.38, -11519.82, -25501.04, 0.00, 0.00, 0.00
41, -5850.43, 47240.50, -8843.38, -23852.10, -1102.34, -29138.25, -11509.14, -25497.93, 0.00, 0.00, 0.00
42, -5860.07, 47364.60, -8846.28, -23862.01, -1083.63, -29136.66, -11511.89, -25501.08, 0.00, 0.00, 0.00
43, -5853.90, 47382.01, -8858.20, -23860.31, -1090.23, -29153.85, -11518.61, -25493.24, 0.00, 0.00, 0.00
44, -5827.12, 47219.87, -8851.25, -23831.92, -1092.64, -29132.39, -11503.64, -25453.96, 0.00, 0.00, 0.00
45, -5836.31, 47176.89, -8841.57, -23830.29, -1082.85, -29111.07, -11497.71, -25454.75, 0.00, 0.00, 0.00
46, -5852.29, 47310.77, -8841.14, -23851.75, -1071.54, -29122.13, -11510.99, -25479.63, 0.00, 0.00, 0.00
47, -5858.97, 47373.20, -8861.42, -23868.55, -1091.75, -29154.59, -11538.33, -25497.26, -0.04, 0.92, 0.34
48, -5831.08, 47225.79, -8858.58, -23840.75, -1105.03, -29148.04, -11532.34, -25471.18, 0.00, 0.00, 0.00
49, -5816.42, 47146.27, -8829.41, -23817.44, -1086.99, -29114.04, -11513.85, -25457.79, 0.00, 0.00, 0.00
50, -5830.88, 47264.13, -8824.67, -23835.32, -1070.18, -29122.69, -11526.75, -25488.97, 0.00, 0.00, 0.00
51, -5839.37, 47359.95, -8847.18, -23859.59, -1084.55, -29165.03, -11557.13, -25519.46, 0.00, 0.00, 0.00
52, -5833.09, 47243.47, -8866.31, -23858.61, -1115.66, -29192.05, -11567.38, -25519.86, 0.00, 0.00, 0.00
53, -5817.24, 47119.91, -8846.95, -23836.28, -1112.20, -29167.66, -11546.31, -25505.08, 0.00, 0.00, 0.00
54, -5823.72, 47206.28, -8830.08, -23844.53, -1091.84, -29162.57, -11549.75, -25527.64, 0.00, 0.00, 0.00
55, -5836.46, 47326.38, -8845.41, -23867.88, -1096.96, -29194.02, -11572.37, -25559.58, 0.00, 0.00, 0.00
56, -5828.37, 47234.20, -8862.98, -23864.33, -1126.80, -29214.71, -11580.82, -25553.25, 0.00, 0.00, 0.00
57, -5810.36, 47089.51, -8846.31, -23833.31, -1124.18, -29184.58, -11546.93, -25521.38, -0.04, 0.92, 0.34
58, -5821.44, 47152.59, -8835.89, -23838.00, -1104.09, -29167.08, -11539.36, -25531.41, 0.00, 0.00, 0.00
59, -5841.81, 47294.52, -8855.16, -23867.33, -1099.39, -29190.06, -11562.45, -25557.52, 0.00, 0.00, 0.00
60, -5833.22, 47251.83, -8870.49, -23867.75, -1119.51, -29211.45, -11562.36, -25546.75, 0.00, 0.00, 0.00
61, -5815.59, 47094.57, -8847.13, -23833.60, -1116.92, -29175.62, -11516.96, -25502.09, 0.00, 0.00, 0.00
62, -5829.94, 47123.55, -8838.50, -23840.10, -1103.77, -29159.28, -11507.93, -25507.86, 0.00, 0.00, 0.00
63, -5849.99, 47264.53, -8853.46, -23865.40, -1102.14, -29173.05, -11531.24, -25531.66, 0.00, 0.00, 0.00
64, -5848.80, 47257.49, -8872.99, -23868.02, -1116.94, -29194.80, -11531.73, -25524.66, 0.00, 0.00, 0.00
65, -5834.63, 47086.16, -8864.30, -23839.01, -1130.60, -29172.63, -11505.02, -25488.72, 0.00, 0.00, 0.00
66, -5844.15, 47072.84, -8853.55, -23839.07, -1113.03, -29149.45, -11493.29, -25489.57, 0.00, 0.00, 0.00
67, -5854.79, 47206.79, -8855.45, -23854.63, -1093.80, -29157.45, -11507.26, -25505.96, -0.04, 0.92, 0.34
68, -5853.34, 47238.22, -8869.22, -23859.73, -1102.77, -29174.75, -11517.23, -25504.55, 0.00, 0.00, 0.00
69, -5846.12, 47082.05, -8875.52, -23851.46, -1126.91, -29176.78, -11515.26, -25487.74, 0.00, 0.00, 0.00
70, -5840.11, 47029.72, -8854.69, -23838.63, -1113.70, -29145.36, -11497.56, -25477.14, 0.00, 0.00, 0.00
71, -5853.34, 47170.67, -8850.35, -23853.98, -1097.45, -29143.30, -11510.83, -25495.56, 0.00, 0.00, 0.00
72, -5849.18, 47250.94, -8864.81, -23863.77, -1104.60, -29164.02, -11533.52, -25503.45, 0.00, 0.00, 0.00
73, -5841.38, 47129.50, -8875.79, -23857.51, -1118.88, -29169.05, -11535.02, -25488.30, 0.00, 0.00, 0.00
74, -5845.25, 47040.77, -8865.39, -23851.90, -1115.37, -29149.74, -11518.43, -25476.83, 0.00, 0.00, 0.00
75, -5851.40, 47151.99, -8846.91, -23859.64, -1092.60, -29135.25, -11516.94, -25487.71, 0.00, 0.00, 0.00
76, -5865.12, 47260.66, -8869.73, -23888.85, -1107.98, -29168.73, -11556.23, -25518.25, 0.00, 0.00, 0.00
77, -5854.32, 47153.11, -8882.78, -23883.20, -1128.96, -29183.82, -11553.42, -25505.42, -0.05, 0.92, 0.34
78, -5847.19, 47032.41, -8866.91, -23866.68, -1116.65, -29166.77, -11524.74, -25491.25, 0.00, 0.00, 0.00
79, -5848.65, 47116.54, -8840.49, -23867.97, -1084.08, -29156.69, -11512.13, -25504.88, 0.00, 0.00, 0.00
80, -5865.19, 47253.69, -8858.29, -23894.21, -1099.53, -29192.58, -11557.33, -25549.29, 0.00, 0.00, 0.00
81, -5826.14, 47188.58, -8855.07, -23860.80, -1109.61, -29196.70, -11556.92, -25527.32, 0.00, 0.00, 0.00
82, -5816.44, 47061.46, -8839.53, -23837.33, -1102.90, -29178.79, -11539.18, -25518.58, 0.00, 0.00, 0.00
83, -5827.01, 47113.34, -8829.07, -23841.76, -1080.15, -29171.19, -11532.09, -25533.43, 0.00, 0.00, 0.00
84, -5847.75, 47256.01, -8847.51, -23871.75, -1089.13, -29201.03, -11565.49, -25570.19, 0.00, 0.00, 0.00
85, -5842.50, 47220.76, -8870.87, -23874.61, -1116.18, -29226.76, -11581.94, -25569.52, 0.00, 0.00, 0.00
86, -5821.27, 47055.05, -8851.58, -23840.48, -1114.64, -29193.75, -11541.12, -25529.56, 0.00, 0.00, 0.00
87, -5826.03, 47061.02, -8833.36, -23834.71, -1095.21, -29163.42, -11526.55, -25528.55, -0.04, 0.92, 0.34
88, -5845.45, 47198.34, -8841.21, -23856.29, -1084.19, -29171.66, -11540.70, -25553.14, 0.00, 0.00, 0.00
89, -5854.44, 47202.39, -8872.23, -23867.75, -1108.85, -29203.04, -11556.59, -25559.04, 0.00, 0.00, 0.00
90, -5842.21, 47041.73, -8874.27, -23848.01, -1118.06, -29190.42, -11530.91, -25527.79, 0.00, 0.00, 0.00
91, -5839.86, 47018.34, -8853.21, -23837.22, -1095.66, -29156.55, -11496.17, -25510.11, 0.00, 0.00, 0.00
92, -5855.13, 47154.07, -8857.82, -23859.01, -1080.51, -29161.09, -11507.44, -25529.29, 0.00, 0.00, 0.00
93, -5864.81, 47187.95, -8886.87, -23879.02, -1103.86, -29188.43, -11537.43, -25536.91, 0.00, 0.00, 0.00
94, -5852.98, 47023.06, -8895.41, -23862.99, -1125.25, -29183.98, -11522.91, -25505.13, 0.00, 0.00, 0.00
95, -5839.19, 46958.36, -8866.98, -23842.16, -1101.83, -29144.26, -11487.79, -25478.44, 0.00, 0.00, 0.00
96, -5851.91, 47082.79, -8863.29, -23860.73, -1075.23, -29140.13, -11494.65, -25493.21, 0.00, 0.00, 0.00
97, -5865.52, 47158.02, -8886.79, -23883.15, -1087.08, -29168.33, -11520.00, -25508.99, -0.04, 0.92, 0.34
98, -5849.43, 47027.69, -8890.27, -23864.60, -1109.41, -29164.35, -11521.63, -25484.25, 0.00, 0.00, 0.00
99, -5849.14, 46929.36, -8875.25, -23851.46, -1106.28, -29136.21, -11509.52, -25471.87, 0.00, 0.00, 0.00
100, -5862.68, 47030.06, -8867.18, -23868.71, -1086.81, -29135.77, -11509.38, -25495.70, 0.00, 0.00, 0.00
101, -5870.48, 47137.12, -8885.89, -23893.66, -1101.92, -29171.53, -11537.81, -25527.14, 0.00, 0.00, 0.00
102, -5870.86, 47039.82, -8905.56, -23897.10, -1133.61, -29200.25, -11547.56, -25531.10, 0.00, 0.00, 0.00
103, -5867.62, 46908.51, -8893.56, -23885.41, -1132.05, -29191.00, -11532.70, -25524.33, 0.00, 0.00, 0.00
104, -5871.02, 46980.04, -8877.93, -23892.14, -1104.27, -29184.89, -11529.86, -25541.18, 0.00, 0.00, 0.00
105, -5879.16, 47104.09, -8888.86, -23913.82, -1103.97, -29213.66, -11555.90, -25569.10, 0.00, 0.00, 0.00
106, -5869.77, 47039.38, -8903.37, -23909.35, -1127.80, -29236.84, -11566.47, -25562.88, 0.00, 0.00, 0.00
107, -5865.81, 46894.27, -8898.50, -23891.02, -1134.24, -29225.20, -11551.40, -25547.84, -0.03, 0.92, 0.34
108, -5871.58, 46928.78, -8881.80, -23888.07, -1112.13, -29210.20, -11544.34, -25552.49, 0.00, 0.00, 0.00
109, -5883.63, 47061.55, -8883.21, -23902.51, -1098.74, -29222.42, -11564.12, -25573.66, 0.00, 0.00, 0.00
110, -5876.77, 47040.54, -8897.71, -23903.87, -1112.56, -29246.36, -11575.57, -25575.33, 0.00, 0.00, 0.00
111, -5851.08, 46884.39, -8883.34, -23876.60, -1118.75, -29229.13, -11545.10, -25546.34, 0.00, 0.00, 0.00
112, -5858.73, 46895.39, -8863.54, -23875.60, -1104.71, -29208.86, -11529.34, -25547.35, 0.00, 0.00, 0.00
113, -5867.87, 47037.12, -8859.58, -23884.09, -1091.57, -29208.52, -11534.82, -25558.08, 0.00, 0.00, 0.00
114, -5856.31, 47063.52, -8871.61, -23879.78, -1103.73, -29213.75, -11540.70, -25548.31, 0.00, 0.00, 0.00
115, -5847.62, 46913.16, -8877.53, -23864.78, -1124.32, -29200.94, -11534.71, -25526.16, 0.00, 0.00, 0.00
116, -5852.49, 46877.17, -8861.26, -23858.03, -1105.32, -29169.21, -11510.95, -25513.46, 0.00, 0.00, 0.00
117, -5871.18, 47012.13, -8857.88, -23873.49, -1074.54, -29163.71, -11503.57, -25525.13, -0.04, 0.92, 0.33
118, -5876.70, 47063.70, -8878.72, -23882.26, -1081.98, -29180.47, -11519.17, -25527.57, 0.00, 0.00, 0.00
119, -5860.25, 46920.38, -8881.85, -23856.89, -1098.50, -29171.42, -11496.89, -25491.81, 0.00, 0.00, 0.00
120, -5856.87, 46853.41, -8863.83, -23843.97, -1086.23, -29143.77, -11467.56, -25475.89, 0.00, 0.00, 0.00
121, -5876.77, 46974.63, -8867.00, -23872.04, -1075.07, -29147.12, -11489.56, -25503.76, 0.00, 0.00, 0.00
122, -5882.96, 47061.02, -8886.54, -23892.92, -1087.17, -29171.64, -11514.19, -25514.43, 0.00, 0.00, 0.00
123, -5869.66, 46938.17, -8896.04, -23882.19, -1103.93, -29172.74, -11503.44, -25487.00, 0.00, 0.00, 0.00
124, -5865.90, 46836.25, -8881.44, -23870.97, -1089.63, -29145.13, -11469.78, -25465.19, 0.00, 0.00, 0.00
125, -5880.45, 46930.08, -8872.39, -23888.47, -1072.24, -29142.85, -11476.93, -25484.29, 0.00, 0.00, 0.00
126, -5887.49, 47039.49, -8880.26, -23905.37, -1078.49, -29166.50, -11503.82, -25501.24, 0.00, 0.00, 0.00
127, -5869.95, 46953.21, -8890.18, -23893.48, -1097.27, -29177.94, -11501.47, -25484.41, -0.04, 0.93, 0.33
128, -5857.54, 46824.36, -8875.21, -23877.21, -1094.94, -29160.46, -11479.39, -25469.54, 0.00, 0.00, 0.00
129, -5881.77, 46886.83, -8869.57, -23897.75, -1087.26, -29167.48, -11495.21, -25499.29, 0.00, 0.00, 0.00
130, -5880.12, 47005.09, -8864.19, -23901.59, -1082.99, -29179.33, -11507.75, -25510.78, 0.00, 0.00, 0.00
131, -5864.34, 46956.05, -8868.93, -23890.13, -1099.80, -29191.85, -11511.42, -25500.30, 0.00, 0.00, 0.00
132, -5853.74, 46810.79, -8865.60, -23876.15, -1110.84, -29184.43, -11501.09, -25491.52, 0.00, 0.00, 0.00
133, -5858.41, 46841.52, -8852.56, -23878.50, -1092.80, -29174.86, -11499.44, -25506.20, 0.00, 0.00, 0.00
134, -5879.45, 46987.72, -8868.97, -23907.40, -1086.45, -29203.27, -11536.41, -25546.68, 0.00, 0.00, 0.00
135, -5874.19, 46977.87, -8885.69, -23905.39, -1108.96, -29223.94, -11551.43, -25546.12, 0.00, 0.00, 0.00
136, -5859.64, 46822.84, -8879.92, -23879.02, -1120.36, -29208.97, -11529.90, -25521.82, 0.00, 0.00, 0.00
137, -5860.65, 46816.24, -8853.26, -23864.87, -1093.04, -29178.48, -11503.88, -25512.32, -0.04, 0.93, 0.33
138, -5872.81, 46957.59, -8853.50, -23879.24, -1069.06, -29184.58, -11514.19, -25528.75, 0.00, 0.00, 0.00
139, -5874.46, 46983.01, -8870.83, -23883.96, -1078.36, -29204.92, -11528.27, -25527.77, 0.00, 0.00, 0.00
140, -5868.96, 46831.29, -8881.38, -23870.19, -1099.97, -29201.08, -11520.18, -25507.41, 0.00, 0.00, 0.00
141, -5872.05, 46780.52, -8874.40, -23865.36, -1095.21, -29179.62, -11501.16, -25501.22, 0.00, 0.00, 0.00
142, -5876.27, 46900.17, -8867.03, -23868.78, -1070.25, -29167.91, -11490.99, -25505.40, 0.00, 0.00, 0.00
143, -5878.37, 46957.91, -8884.26, -23875.28, -1075.32, -29185.10, -11496.13, -25506.16, 0.00, 0.00, 0.00
144, -5864.74, 46821.20, -8891.23, -23857.07, -1088.46, -29181.47, -11478.56, -25481.41, 0.00, 0.00, 0.00
145, -5866.84, 46734.34, -8879.74, -23848.28, -1081.02, -29159.17, -11462.78, -25468.34, 0.00, 0.00, 0.00
146, -5887.02, 46844.74, -8884.75, -23876.04, -1074.87, -29165.43, -11491.23, -25500.61, 0.00, 0.00, 0.00
147, -5887.05, 46935.62, -8903.73, -23889.86, -1089.63, -29187.24, -11516.15, -25512.48, -0.04, 0.93, 0.33
148, -5888.21, 46826.59, -8917.45, -23887.44, -1114.46, -29197.37, -11515.71, -25499.56, 0.00, 0.00, 0.00
149, -5882.26, 46718.14, -8901.36, -23875.15, -1109.97, -29175.78, -11492.75, -25485.44, 0.00, 0.00, 0.00
150, -5895.52, 46806.32, -8894.90, -23892.38, -1091.86, -29176.22, -11502.56, -25507.59, 0.00, 0.00, 0.00
151, -5899.32, 46922.59, -8908.67, -23909.01, -1092.69, -29197.12, -11522.61, -25522.94, 0.00, 0.00, 0.00
152, -5886.51, 46851.07, -8922.17, -23904.36, -1117.16, -29210.82, -11531.40, -25513.69, 0.00, 0.00, 0.00
153, -5876.36, 46728.42, -8914.46, -23892.56, -1132.21, -29200.47, -11523.53, -25500.68, 0.00, 0.00, 0.00
154, -5876.23, 46795.21, -8896.53, -23893.41, -1110.08, -29186.30, -11507.10, -25503.09, 0.00, 0.00, 0.00
155, -5892.19, 46939.02, -8909.20, -23918.42, -1107.42, -29212.97, -11532.99, -25532.46, 0.00, 0.00, 0.00
156, -5884.25, 46908.31, -8922.06, -23914.33, -1117.61, -29240.08, -11543.63, -25531.97, 0.00, 0.00, 0.00
157, -5868.23, 46767.74, -8911.84, -23894.55, -1122.68, -29230.31, -11532.56, -25520.64, -0.04, 0.93, 0.33
158, -5875.40, 46801.49, -8899.12, -23896.85, -1110.14, -29218.24, -11535.67, -25536.67, 0.00, 0.00, 0.00
159, -5890.73, 46953.32, -8897.71, -23910.62, -1102.81, -29231.81, -11551.11, -25558.35, 0.00, 0.00, 0.00
160, -5872.00, 46964.57, -8899.66, -23898.46, -1116.89, -29243.81, -11556.32, -25549.18, 0.00, 0.00, 0.00
161, -5850.39, 46817.09, -8888.53, -23867.17, -1118.68, -29223.68, -11528.43, -25517.51, 0.00, 0.00, 0.00
162, -5869.75, 46813.96, -8877.84, -23870.90, -1105.83, -29205.06, -11520.69, -25527.28, 0.00, 0.00, 0.00
163, -5878.84, 46961.08, -8881.26, -23885.83, -1095.86, -29211.72, -11532.85, -25545.83, 0.00, 0.00, 0.00
164, -5880.16, 47007.24, -8897.25, -23889.34, -1104.91, -29231.16, -11535.42, -25541.14, 0.00, 0.00, 0.00
165, -5866.86, 46861.91, -8898.32, -23869.74, -1112.92, -29224.50, -11509.07, -25511.79, 0.00, 0.00, 0.00
166, -5862.21, 46816.29, -8879.30, -23856.08, -1093.74, -29192.85, -11484.75, -25499.83, 0.00, 0.00, 0.00
167, -5883.14, 46954.46, -8881.98, -23879.51, -1070.69, -29197.14, -11497.04, -25525.04, -0.04, 0.93, 0.34
168, -5899.07, 47029.10, -8914.37, -23902.93, -1081.31, -29230.02, -11524.80, -25541.72, 0.00, 0.00, 0.00
169, -5881.32, 46901.38, -8921.21, -23885.23, -1091.23, -29223.21, -11504.00, -25508.66, 0.00, 0.00, 0.00
170, -5880.94, 46817.71, -8910.12, -23877.79, -1073.20, -29197.01, -11471.34, -25490.55, 0.00, 0.00, 0.00
171, -5909.29, 46926.84, -8910.99, -23905.90, -1050.33, -29196.83, -11473.69, -25510.54, 0.00, 0.00, 0.00
172, -5925.22, 47030.44, -8934.01, -23927.34, -1072.19, -29222.42, -11509.40, -25529.63, 0.00, 0.00, 0.00
173, -5916.37, 46929.43, -8948.12, -23916.25, -1092.51, -29225.91, -11501.54, -25503.61, 0.00, 0.00, 0.00
174, -5908.08, 46808.60, -8937.41, -23901.97, -1090.52, -29200.47, -11476.48, -25484.38, 0.00, 0.00, 0.00
175, -5920.69, 46879.72, -8934.37, -23922.51, -1082.74, -29195.18, -11495.52, -25509.17, 0.00, 0.00, 0.00
176, -5931.19, 47001.71, -8955.45, -23950.21, -1092.60, -29224.61, -11538.01, -25541.54, 0.00, 0.00, 0.00
177, -5914.58, 46938.24, -8975.34, -23947.44, -1128.81, -29243.14, -11557.13, -25537.25, -0.04, 0.92, 0.34
178, -5901.04, 46798.36, -8964.01, -23927.41, -1141.30, -29222.74, -11539.96, -25518.29, 0.00, 0.00, 0.00
179, -5916.69, 46852.18, -8952.90, -23936.84, -1128.87, -29211.22, -11535.87, -25533.71, 0.00, 0.00, 0.00
180, -5921.13, 46985.02, -8955.34, -23947.99, -1125.28, -29226.98, -11555.67, -25551.44, 0.00, 0.00, 0.00
181, -5900.15, 46959.32, -8955.90, -23931.43, -1144.45, -29237.64, -11558.11, -25536.20, 0.00, 0.00, 0.00
182, -5882.42, 46809.51, -8946.11, -23909.24, -1155.63, -29226.65, -11548.52, -25516.08, 0.00, 0.00, 0.00
183, -5880.16, 46821.41, -8922.24, -23898.28, -1132.25, -29204.25, -11534.42, -25515.03, 0.00, 0.00, 0.00
184, -5901.62, 46969.15, -8922.53, -23914.02, -1115.13, -29224.84, -11544.25, -25542.32, 0.00, 0.00, 0.00
185, -5893.01, 46988.57, -8926.75, -23909.64, -1126.71, -29248.22, -11551.18, -25543.15, 0.00, 0.00, 0.00
186, -5870.57, 46832.40, -8912.94, -23876.60, -1137.86, -29227.30, -11532.36, -25514.11, 0.00, 0.00, 0.00
187, -5869.32, 46809.67, -8885.42, -23859.62, -1113.97, -29195.09, -11506.03, -25504.88, -0.05, 0.92, 0.33
188, -5896.37, 46944.43, -8898.27, -23890.46, -1104.22, -29218.51, -11545.08, -25548.02, 0.00, 0.00, 0.00
189, -5898.78, 46997.98, -8924.18, -23907.56, -1121.16, -29254.70, -11575.95, -25564.94, 0.00, 0.00, 0.00
190, -5871.56, 46858.89, -8910.28, -23874.86, -1116.96, -29239.93, -11528.78, -25524.51, 0.00, 0.00, 0.00
191, -5866.01, 46802.67, -8885.31, -23856.51, -1087.14, -29206.93, -11491.46, -25507.34, 0.00, 0.00, 0.00
192, -5881.66, 46927.96, -8887.10, -23874.63, -1066.42, -29209.21, -11490.94, -25526.83, 0.00, 0.00, 0.00
193, -5899.97, 47013.81, -8911.55, -23899.31, -1076.26, -29242.50, -11518.43, -25546.01, 0.00, 0.00, 0.00
194, -5893.22, 46892.06, -8921.01, -23886.86, -1096.29, -29243.93, -11512.96, -25520.82, 0.00, 0.00, 0.00
195, -5885.39, 46794.07, -8900.46, -23865.76, -1078.52, -29204.54, -11475.77, -25491.43, 0.00, 0.00, 0.00
196, -5910.14, 46890.92, -8900.44, -23886.10, -1060.84, -29198.51, -11486.61, -25513.49, 0.00, 0.00, 0.00
197, -5923.48, 46996.13, -8929.01, -23910.73, -1072.19, -29222.87, -11511.06, -25534.10, -0.05, 0.92, 0.34
198, -5912.30, 46905.67, -8950.35, -23907.76, -1098.95, -29230.96, -11504.15, -25513.22, 0.00, 0.00, 0.00
199, -5908.73, 46779.20, -8944.99, -23897.17, -1104.87, -29206.78, -11486.14, -25491.85, 0.00, 0.00, 0.00
200, -5914.47, 46849.81, -8931.71, -23903.22, -1089.56, -29189.16, -11483.66, -25497.55, 0.00, 0.00, 0.00
201, -5915.97, 46975.39, -8935.60, -23916.03, -1086.74, -29202.15, -11506.25, -25509.26, 0.00, 0.00, 0.00
202, -5903.34, 46924.11, -8943.54, -23908.03, -1106.68, -29209.79, -11507.37, -25495.52, 0.00, 0.00, 0.00
203, -5898.07, 46784.05, -8936.27, -23891.31, -1124.72, -29193.66, -11498.34, -25478.55, 0.00, 0.00, 0.00
204, -5905.49, 46822.95, -8919.98, -23893.21, -1108.40, -29177.65, -11496.26, -25486.67, 0.00, 0.00, 0.00
205, -5905.93, 46967.45, -8914.25, -23902.15, -1087.68, -29185.63, -11509.09, -25499.47, 0.00, 0.00, 0.00
206, -5897.93, 46959.80, -8931.91, -23901.48, -1114.50, -29210.64, -11529.03, -25497.73, 0.00, 0.00, 0.00
207, -5886.91, 46805.69, -8928.36, -23877.25, -1132.85, -29196.45, -11518.14, -25475.56, -0.03, 0.92, 0.34
208, -5880.77, 46809.45, -8898.30, -23862.39, -1110.68, -29168.78, -11501.09, -25470.08, 0.00, 0.00, 0.00
209, -5890.27, 46954.96, -8900.82, -23881.38, -1098.30, -29191.94, -11520.20, -25499.58, 0.00, 0.00, 0.00
210, -5885.80, 46985.87, -8917.74, -23886.84, -1111.82, -29227.45, -11535.98, -25508.59, 0.00, 0.00, 0.00
211, -5866.42, 46847.27, -8908.44, -23858.72, -1114.79, -29221.75, -11516.24, -25486.44, 0.00, 0.00, 0.00
212, -5871.02, 46831.89, -8889.98, -23851.34, -1104.09, -29205.57, -11504.60, -25492.70, 0.00, 0.00, 0.00
213, -5883.18, 46990.76, -8888.22, -23869.88, -1089.85, -29217.51, -11514.77, -25519.90, 0.00, 0.00, 0.00
214, -5873.97, 47073.44, -8895.08, -23873.25, -1097.07, -29237.56, -11526.66, -25527.30, 0.00, 0.00, 0.00
215, -5866.19, 46951.09, -8904.42, -23864.76, -1115.93, -29239.30, -11527.73, -25518.03, 0.00, 0.00, 0.00
216, -5866.80, 46885.53, -8890.07, -23855.95, -1098.59, -29214.85, -11502.32, -25507.05, 0.00, 0.00, 0.00
217, -5883.72, 47005.92, -8879.97, -23868.11, -1073.04, -29206.24, -11503.53, -25521.91, -0.04, 0.93, 0.34
218, -5892.68, 47103.24, -8895.64, -23885.28, -1078.11, -29222.16, -11520.18, -25532.89, 0.00, 0.00, 0.00
219, -5887.05, 46991.81, -8912.36, -23880.31, -1098.16, -29224.68, -11513.00, -25517.18, 0.00, 0.00, 0.00
220, -5888.88, 46879.72, -8902.34, -23868.35, -1099.77, -29193.68, -11493.80, -25503.09, 0.00, 0.00, 0.00
221, -5909.76, 46966.96, -8897.58, -23884.71, -1084.19, -29183.82, -11495.55, -25518.70, 0.00, 0.00, 0.00
222, -5918.67, 47074.79, -8910.88, -23903.76, -1080.04, -29200.54, -11506.81, -25530.56, 0.00, 0.00, 0.00
223, -5911.61, 46972.05, -8923.49, -23896.81, -1091.75, -29202.06, -11498.38, -25508.55, 0.00, 0.00, 0.00
224, -5897.33, 46817.43, -8909.34, -23870.19, -1088.80, -29163.15, -11466.09, -25474.48, 0.00, 0.00, 0.00
225, -5905.96, 46872.77, -8899.24, -23873.96, -1072.93, -29133.22, -11456.18, -25481.39, 0.00, 0.00, 0.00
226, -5917.15, 47000.33, -8917.92, -23896.36, -1076.35, -29146.70, -11479.57, -25502.04, 0.00, 0.00, 0.00
227, -5912.13, 46953.41, -8935.20, -23896.07, -1097.27, -29161.40, -11497.92, -25496.25, -0.04, 0.92, 0.34
228, -5896.64, 46801.63, -8924.18, -23872.80, -1111.82, -29140.37, -11483.63, -25473.25, 0.00, 0.00, 0.00
229, -5905.22, 46831.26, -8910.12, -23880.74, -1099.95, -29123.34, -11475.63, -25484.09, 0.00, 0.00, 0.00
230, -5920.46, 46969.98, -8917.94, -23904.25, -1094.03, -29141.69, -11490.29, -25512.37, 0.00, 0.00, 0.00
231, -5914.34, 46965.24, -8932.34, -23905.08, -1110.37, -29162.14, -11508.62, -25511.99, 0.00, 0.00, 0.00
232, -5883.69, 46814.81, -8916.60, -23873.36, -1115.31, -29138.78, -11489.51, -25476.90, 0.00, 0.00, 0.00
233, -5883.25, 46821.81, -8895.46, -23869.11, -1099.62, -29110.24, -11474.38, -25475.00, 0.00, 0.00, 0.00
234, -5901.53, 46972.28, -8900.62, -23890.91, -1088.33, -29121.46, -11496.31, -25501.64, 0.00, 0.00, 0.00
235, -5891.20, 47013.63, -8905.63, -23886.41, -1102.03, -29137.89, -11514.57, -25501.93, 0.00, 0.00, 0.00
236, -5874.84, 46874.64, -8901.45, -23864.93, -1118.73, -29130.40, -11509.45, -25486.80, 0.00, 0.00, 0.00
237, -5877.52, 46831.35, -8883.50, -23854.85, -1105.76, -29113.28, -11500.91, -25492.90, -0.04, 0.92, 0.34
238, -5895.09, 46961.10, -8878.18, -23868.40, -1086.25, -29123.92, -11505.45, -25517.91, 0.00, 0.00, 0.00
239, -5892.05, 47037.43, -8885.13, -23872.04, -1093.78, -29152.35, -11517.41, -25527.90, 0.00, 0.00, 0.00
240, -5875.02, 46913.47, -8886.63, -23854.90, -1118.75, -29161.78, -11518.95, -25514.13, 0.00, 0.00, 0.00
241, -5856.89, 46834.68, -8860.59, -23829.51, -1108.45, -29134.45, -11496.93, -25496.46, 0.00, 0.00, 0.00
242, -5868.72, 46957.64, -8855.07, -23844.77, -1090.79, -29137.40, -11499.75, -25518.81, 0.00, 0.00, 0.00
243, -5876.68, 47067.79, -8875.97, -23866.90, -1105.00, -29173.88, -11521.54, -25543.91, 0.00, 0.00, 0.00
244, -5863.04, 46968.19, -8879.54, -23847.88, -1124.34, -29180.11, -11509.74, -25519.19, 0.00, 0.00, 0.00
245, -5863.80, 46851.42, -8866.38, -23829.95, -1112.69, -29154.92, -11487.97, -25500.41, 0.00, 0.00, 0.00
246, -5872.23, 46922.41, -8856.21, -23834.87, -1088.33, -29142.52, -11476.15, -25505.28, 0.00, 0.00, 0.00
247, -5879.42, 47038.57, -8869.78, -23853.00, -1093.56, -29162.37, -11498.83, -25523.95, -0.04, 0.92, 0.34
248, -5876.74, 46971.34, -8891.84, -23855.44, -1115.71, -29178.10, -11509.18, -25516.88, 0.00, 0.00, 0.00
249, -5867.60, 46829.96, -8885.06, -23837.29, -1117.05, -29154.70, -11485.78, -25488.63, 0.00, 0.00, 0.00
250, -5886.38, 46879.23, -8876.12, -23845.38, -1095.15, -29135.54, -11472.66, -25494.15, 0.00, 0.00, 0.00
251, -5899.41, 47006.93, -8886.58, -23863.64, -1086.27, -29149.94, -11478.80, -25506.74, 0.00, 0.00, 0.00
252, -5887.87, 46975.86, -8894.81, -23859.62, -1102.03, -29162.41, -11486.43, -25497.39, 0.00, 0.00, 0.00
253, -5880.10, 46823.28, -8890.67, -23844.82, -1107.33, -29146.81, -11468.46, -25475.20, 0.00, 0.00, 0.00
254, -5878.58, 46840.40, -8872.17, -23838.11, -1078.49, -29118.29, -11452.61, -25468.94, 0.00, 0.00, 0.00
255, -5877.39, 46997.07, -8862.76, -23845.38, -1059.34, -29112.68, -11461.73, -25474.75, 0.00, 0.00, 0.00
0, -5871.29, 47024.22, -8878.13, -23849.27, -1083.41, -29133.66, -11481.13, -25472.61, 0.00, 0.00, 0.00
1, -5855.40, 46881.53, -8877.49, -23826.11, -1102.81, -29121.04, -11472.26, -25446.81, -0.03, 0.92, 0.34
2, -5857.92, 46877.33, -8864.10, -23823.43, -1090.01, -29093.34, -11464.19, -25448.55, 0.00, 0.00, 0.00
3, -5861.23, 47032.67, -8857.95, -23837.73, -1070.74, -29095.55, -11479.16, -25470.73, 0.00, 0.00, 0.00
4, -5864.99, 47099.41, -8878.58, -23852.57, -1086.00, -29130.47, -11505.87, -25488.97, 0.00, 0.00, 0.00
5, -5860.38, 46971.41, -8887.19, -23842.20, -1108.02, -29142.20, -11503.59, -25481.08, 0.00, 0.00, 0.00
6, -5866.98, 46920.60, -8877.24, -23838.69, -1105.00, -29137.04, -11489.36, -25490.13, 0.00, 0.00, 0.00
7, -5872.16, 47052.32, -8867.09, -23851.19, -1086.43, -29144.62, -11489.62, -25515.77, 0.00, 0.00, 0.00
8, -5873.86, 47141.17, -8877.38, -23863.88, -1101.18, -29173.36, -11513.20, -25533.94, 0.00, 0.00, 0.00
9, -5861.50, 47019.42, -8884.75, -23851.70, -1130.60, -29184.31, -11520.02, -25522.43, 0.00, 0.00, 0.00
10, -5848.76, 46924.65, -8863.70, -23835.16, -1113.39, -29162.54, -11492.48, -25507.38, 0.00, 0.00, 0.00
11, -5854.86, 47029.01, -8850.87, -23846.85, -1085.11, -29159.62, -11489.62, -25523.41, -0.04, 0.92, 0.35
12, -5855.44, 47143.54, -8859.69, -23860.38, -1086.27, -29181.30, -11504.82, -25534.52, 0.00, 0.00, 0.00
13, -5852.11, 47056.59, -8876.26, -23855.97, -1106.23, -29195.71, -11509.18, -25521.45, 0.00, 0.00, 0.00
14, -5859.58, 46934.19, -8875.79, -23848.28, -1106.52, -29180.04, -11490.29, -25509.46, 0.00, 0.00, 0.00
15, -5862.80, 47003.84, -8863.27, -23854.81, -1083.28, -29167.84, -11483.43, -25518.14, 0.00, 0.00, 0.00
16, -5873.57, 47136.74, -8874.87, -23877.18, -1080.66, -29187.71, -11493.80, -25535.21, 0.00, 0.00, 0.00
17, -5877.59, 47082.96, -8902.90, -23888.22, -1119.24, -29209.08, -11514.66, -25535.62, 0.00, 0.00, 0.00
18, -5865.01, 46937.86, -8896.04, -23867.57, -1119.35, -29182.88, -11489.60, -25502.38, 0.00, 0.00, 0.00
19, -5860.38, 46982.38, -8868.05, -23855.37, -1067.56, -29145.47, -11450.60, -25484.12, 0.00, 0.00, 0.00
20, -5888.05, 47127.85, -8886.14, -23888.38, -1057.86, -29167.48, -11477.08, -25512.66, 0.00, 0.00, 0.00
21, -5882.78, 47111.55, -8908.67, -23890.97, -1090.43, -29186.48, -11494.92, -25504.95, -0.04, 0.92, 0.35
22, -5864.00, 46963.61, -8901.18, -23863.91, -1106.90, -29158.95, -11468.17, -25467.29, 0.00, 0.00, 0.00
23, -5864.85, 46975.00, -8878.81, -23852.60, -1087.52, -29122.98, -11453.57, -25456.89, 0.00, 0.00, 0.00
24, -5882.87, 47124.98, -8885.76, -23876.04, -1084.44, -29133.96, -11478.67, -25480.79, 0.00, 0.00, 0.00
25, -5879.22, 47145.55, -8904.06, -23883.26, -1113.16, -29159.66, -11500.02, -25477.43, 0.00, 0.00, 0.00
26, -5851.04, 46997.89, -8889.38, -23847.19, -1125.10, -29132.46, -11482.83, -25438.77, 0.00, 0.00, 0.00
27, -5856.60, 46973.06, -8873.15, -23842.90, -1114.39, -29112.19, -11469.39, -25442.99, 0.00, 0.00, 0.00
28, -5860.83, 47099.39, -8862.96, -23850.09, -1092.40, -29108.61, -11473.33, -25460.13, 0.00, 0.00, 0.00
29, -5866.37, 47159.65, -8881.60, -23867.50, -1102.37, -29141.42, -11496.08, -25478.51, 0.00, 0.00, 0.00
30, -5862.95, 47023.06, -8889.33, -23859.37, -1121.81, -29152.66, -11491.14, -25467.06, 0.00, 0.00, 0.00
31, -5860.72, 46950.71, -8869.73, -23848.51, -1109.76, -29138.87, -11471.50, -25464.38, -0.04, 0.92, 0.36
32, -5862.19, 47063.81, -8853.97, -23854.29, -1087.99, -29138.65, -11475.32, -25485.53, 0.00, 0.00, 0.00
33, -5863.47, 47152.77, -8864.28, -23864.09, -1095.79, -29165.45, -11494.00, -25501.80, 0.00, 0.00, 0.00
34, -5850.19, 47034.64, -8869.26, -23846.70, -1110.52, -29172.56, -11485.85, -25483.04, 0.00, 0.00, 0.00
35, -5851.19, 46934.77, -8857.75, -23838.92, -1097.85, -29157.38, -11472.90, -25479.51, 0.00, 0.00, 0.00
36, -5868.88, 47027.75, -8852.54, -23854.50, -1074.92, -29158.45, -11473.33, -25503.83, 0.00, 0.00, 0.00
37, -5879.04, 47136.07, -8863.23, -23870.52, -1070.34, -29179.66, -11486.20, -25522.49, 0.00, 0.00, 0.00
38, -5859.46, 47049.21, -8877.87, -23857.54, -1090.07, -29181.79, -11487.30, -25507.59, 0.00, 0.00, 0.00
39, -5847.10, 46922.57, -8872.48, -23840.64, -1087.21, -29159.35, -11469.93, -25489.28, 0.00, 0.00, 0.00
40, -5858.62, 46984.91, -8856.88, -23846.20, -1061.86, -29145.11, -11463.45, -25498.47, 0.00, 0.00, 0.00
41, -5873.61, 47110.30, -8874.16, -23872.33, -1065.93, -29170.28, -11484.93, -25525.60, -0.04, 0.92, 0.36
42, -5860.65, 47060.39, -8890.34, -23865.72, -1086.83, -29180.85, -11484.30, -25510.80, 0.00, 0.00, 0.00
43, -5857.59, 46920.38, -8889.76, -23853.07, -1097.96, -29161.29, -11459.63, -25488.68, 0.00, 0.00, 0.00
44, -5872.45, 46949.57, -8878.94, -23855.66, -1082.92, -29135.90, -11446.91, -25489.35, 0.00, 0.00, 0.00
45, -5879.67, 47080.24, -8887.77, -23870.08, -1072.03, -29140.50, -11456.25, -25499.36, 0.00, 0.00, 0.00
46, -5880.45, 47067.27, -8918.57, -23882.03, -1097.90, -29162.41, -11474.67, -25498.89, 0.00, 0.00, 0.00
47, -5860.83, 46909.02, -8910.39, -23855.75, -1101.92, -29138.63, -11448.29, -25462.48, 0.00, 0.00, 0.00
48, -5857.10, 46900.35, -8882.07, -23845.20, -1074.27, -29103.24, -11427.69, -25448.49, 0.00, 0.00, 0.00
49, -5862.62, 47040.65, -8878.09, -23858.27, -1056.03, -29100.45, -11436.90, -25461.56, 0.00, 0.00, 0.00
50, -5855.62, 47067.25, -8894.90, -23862.86, -1070.00, -29120.41, -11452.25, -25461.01, 0.00, 0.00, 0.00
51, -5854.06, 46917.65, -8901.27, -23854.85, -1091.93, -29119.49, -11449.03, -25445.29, -0.04, 0.91, 0.35
52, -5857.88, 46869.77, -8892.66, -23852.08, -1089.80, -29098.42, -11445.90, -25443.64, 0.00, 0.00, 0.00
53, -5865.23, 46997.34, -8888.86, -23866.95, -1075.12, -29097.19, -11458.78, -25464.09, 0.00, 0.00, 0.00
54, -5865.21, 47052.28, -8893.63, -23870.05, -1083.52, -29125.10, -11471.14, -25466.17, 0.00, 0.00, 0.00
55, -5860.27, 46921.54, -8900.73, -23859.39, -1106.61, -29132.46, -11466.33, -25453.07, 0.00, 0.00, 0.00
56, -5840.67, 46851.07, -8878.20, -23840.21, -1088.33, -29108.03, -11443.22, -25440.69, 0.00, 0.00, 0.00
57, -5851.53, 46960.72, -8860.05, -23846.16, -1055.81, -29105.97, -11443.00, -25454.63, 0.00, 0.00, 0.00
58, -5858.28, 47046.84, -8864.05, -23851.72, -1055.38, -29128.66, -11461.15, -25467.89, 0.00, 0.00, 0.00
59, -5851.69, 46942.53, -8879.07, -23848.28, -1081.73, -29152.89, -11470.69, -25467.31, 0.00, 0.00, 0.00
60, -5838.97, 46836.96, -8871.16, -23835.07, -1077.04, -29139.43, -11456.25, -25459.66, 0.00, 0.00, 0.00
61, -5850.64, 46918.84, -8857.53, -23840.75, -1060.63, -29131.72, -11455.80, -25477.95, -0.04, 0.91, 0.35
62, -5867.76, 47023.24, -8872.84, -23859.39, -1070.69, -29161.18, -11477.31, -25501.87, 0.00, 0.00, 0.00
63, -5850.55, 46945.57, -8879.95, -23844.33, -1085.00, -29167.37, -11470.85, -25482.31, 0.00, 0.00, 0.00
64, -5841.07, 46815.64, -8868.14, -23825.33, -1076.17, -29139.30, -11443.15, -25458.48, 0.00, 0.00, 0.00
65, -5860.72, 46857.77, -8869.44, -23844.57, -1058.11, -29130.85, -11444.25, -25478.04, 0.00, 0.00, 0.00
66, -5864.36, 46976.10, -8877.53, -23862.12, -1046.49, -29146.36, -11457.03, -25496.03, 0.00, 0.00, 0.00
67, -5861.12, 46940.72, -8897.65, -23868.47, -1070.89, -29170.68, -11471.45, -25498.42, 0.00, 0.00, 0.00
68, -5861.92, 46787.86, -8899.21, -23860.49, -1086.83, -29164.58, -11459.76, -25482.91, 0.00, 0.00, 0.00
69, -5873.84, 46793.62, -8887.32, -23865.07, -1072.28, -29148.22, -11446.01, -25484.94, 0.00, 0.00, 0.00
70, -5891.23, 46920.73, -8902.52, -23894.19, -1067.07, -29167.35, -11465.53, -25510.80, 0.00, 0.00, 0.00
71, -5892.19, 46913.00, -8933.17, -23910.15, -1089.33, -29198.22, -11479.68, -25513.42, -0.05, 0.91, 0.35
72, -5870.06, 46752.67, -8921.23, -23879.51, -1095.88, -29175.87, -11441.83, -25468.78, 0.00, 0.00, 0.00
73, -5878.11, 46740.87, -8903.59, -23876.22, -1075.21, -29141.58, -11421.23, -25462.14, 0.00, 0.00, 0.00
74, -5887.02, 46876.34, -8907.64, -23896.41, -1061.69, -29144.19, -11445.10, -25485.03, 0.00, 0.00, 0.00
75, -5884.77, 46914.10, -8922.28, -23900.67, -1082.92, -29163.26, -11477.17, -25487.85, 0.00, 0.00, 0.00
76, -5875.33, 46776.59, -8923.02, -23882.12, -1106.95, -29157.58, -11462.33, -25462.90, 0.00, 0.00, 0.00
77, -5877.21, 46731.33, -8912.98, -23877.32, -1099.26, -29135.70, -11453.75, -25461.52, 0.00, 0.00, 0.00
78, -5889.68, 46851.07, -8911.28, -23892.47, -1080.17, -29135.92, -11470.18, -25484.56, 0.00, 0.00, 0.00
79, -5897.64, 46914.99, -8928.69, -23904.54, -1091.37, -29164.51, -11501.22, -25499.90, 0.00, 0.00, 0.00
80, -5870.86, 46783.65, -8925.43, -23874.32, -1104.44, -29153.71, -11477.75, -25465.25, 0.00, 0.00, 0.00
81, -5862.24, 46699.59, -8900.44, -23853.85, -1095.03, -29124.90, -11455.31, -25452.80, -0.05, 0.92, 0.34
82, -5886.13, 46796.17, -8896.58, -23870.48, -1087.37, -29131.50, -11475.09, -25483.09, 0.00, 0.00, 0.00
83, -5879.27, 46884.23, -8902.36, -23877.27, -1091.01, -29149.74, -11495.81, -25497.46, 0.00, 0.00, 0.00
84, -5847.46, 46788.01, -8900.93, -23852.71, -1103.82, -29154.77, -11489.20, -25476.83, 0.00, 0.00, 0.00
85, -5842.68, 46688.01, -8883.88, -23832.99, -1092.71, -29133.06, -11468.59, -25464.87, 0.00, 0.00, 0.00
86, -5858.64, 46764.90, -8872.12, -23844.55, -1076.44, -29128.64, -11472.35, -25484.05, 0.00, 0.00, 0.00
87, -5865.12, 46886.05, -8873.33, -23857.49, -1072.86, -29150.23, -11486.11, -25499.67, 0.00, 0.00, 0.00
88, -5857.63, 46813.25, -8884.68, -23851.81, -1101.40, -29168.67, -11490.94, -25490.98, 0.00, 0.00, 0.00
89, -5846.03, 46670.13, -8874.78, -23833.44, -1105.54, -29149.63, -11467.70, -25472.47, 0.00, 0.00, 0.00
90, -5861.39, 46717.94, -8868.93, -23839.90, -1079.68, -29139.41, -11451.31, -25483.60, 0.00, 0.00, 0.00
91, -5876.45, 46843.64, -8874.49, -23856.33, -1070.87, -29155.82, -11463.78, -25501.19, -0.06, 0.91, 0.34
92, -5875.04, 46811.05, -8893.25, -23859.66, -1091.06, -29178.99, -11474.40, -25499.70, 0.00, 0.00, 0.00
93, -5863.40, 46663.38, -8889.20, -23839.19, -1100.06, -29162.23, -11451.04, -25475.27, 0.00, 0.00, 0.00
94, -5879.38, 46677.30, -8885.76, -23855.88, -1086.43, -29150.83, -11448.21, -25488.90, 0.00, 0.00, 0.00
95, -5904.30, 46799.61, -8905.11, -23892.11, -1077.40, -29177.52, -11466.80, -25518.96, 0.00, 0.00, 0.00
96, -5898.25, 46799.59, -8922.79, -23893.84, -1083.30, -29192.32, -11467.92, -25507.23, 0.00, 0.00, 0.00
97, -5883.90, 46642.08, -8920.74, -23872.36, -1097.96, -29173.63, -11443.49, -25471.80, 0.00, 0.00, 0.00
98, -5896.48, 46614.25, -8910.52, -23877.85, -1091.57, -29151.08, -11433.52, -25474.91, 0.00, 0.00, 0.00
99, -5906.36, 46739.22, -8914.70, -23898.69, -1082.54, -29156.55, -11447.74, -25496.77, 0.00, 0.00, 0.00
100, -5905.89, 46775.63, -8933.81, -23909.57, -1097.18, -29179.58, -11470.02, -25499.96, 0.00, 0.00, 0.00
101, -5893.66, 46631.10, -8943.31, -23893.88, -1117.25, -29174.21, -11468.90, -25473.88, 0.00, 0.00, 0.00
102, -5890.53, 46571.18, -8929.39, -23880.29, -1111.87, -29147.59, -11455.13, -25461.36, -0.06, 0.92, 0.33
103, -5909.62, 46689.53, -8931.96, -23904.21, -1095.15, -29154.18, -11463.78, -25485.17, 0.00, 0.00, 0.00
104, -5904.19, 46757.48, -8940.76, -23907.83, -1103.37, -29172.06, -11488.39, -25490.91, 0.00, 0.00, 0.00
105, -5895.50, 46636.11, -8950.44, -23896.52, -1125.23, -29180.29, -11490.32, -25475.45, 0.00, 0.00, 0.00
106, -5875.96, 46540.55, -8925.68, -23871.35, -1108.89, -29151.99, -11461.66, -25454.10, 0.00, 0.00, 0.00
107, -5886.56, 46646.14, -8913.29, -23880.22, -1088.28, -29145.33, -11466.38, -25474.33, 0.00, 0.00, 0.00
108, -5900.93, 46750.77, -8934.53, -23896.88, -1099.71, -29175.64, -11498.09, -25501.26, 0.00, 0.00, 0.00
109, -5887.67, 46661.79, -8946.49, -23889.14, -1130.82, -29193.59, -11510.79, -25496.79, 0.00, 0.00, 0.00
110, -5873.73, 46543.04, -8926.17, -23866.34, -1128.29, -29174.59, -11487.83, -25481.03, 0.00, 0.00, 0.00
111, -5877.21, 46609.46, -8904.85, -23865.58, -1104.29, -29164.20, -11477.22, -25492.48, 0.00, 0.00, 0.00
112, -5883.22, 46731.57, -8909.65, -23879.69, -1096.84, -29188.56, -11494.70, -25518.11, -0.05, 0.92, 0.33
113, -5874.57, 46676.12, -8928.94, -23874.17, -1116.89, -29210.98, -11503.24, -25515.21, 0.00, 0.00, 0.00
114, -5862.26, 46534.39, -8919.33, -23848.84, -1115.89, -29186.82, -11480.84, -25492.34, 0.00, 0.00, 0.00
115, -5865.03, 46569.10, -8898.09, -23842.52, -1092.33, -29164.35, -11466.38, -25491.52, 0.00, 0.00, 0.00
116, -5871.22, 46703.14, -8899.08, -23852.66, -1077.29, -29170.54, -11477.80, -25504.10, 0.00, 0.00, 0.00
117, -5869.17, 46683.96, -8921.97, -23858.63, -1092.87, -29194.10, -11488.62, -25503.16, 0.00, 0.00, 0.00
118, -5857.19, 46530.14, -8919.66, -23838.29, -1094.79, -29177.52, -11462.85, -25476.43, 0.00, 0.00, 0.00
119, -5863.35, 46539.13, -8900.42, -23836.62, -1062.47, -29150.50, -11440.32, -25473.46, 0.00, 0.00, 0.00
120, -5872.38, 46674.55, -8898.45, -23855.14, -1043.09, -29154.81, -11446.19, -25489.86, 0.00, 0.00, 0.00
121, -5876.23, 46695.99, -8919.75, -23868.78, -1061.46, -29177.94, -11463.18, -25496.97, 0.00, 0.00, 0.00
122, -5875.42, 46542.39, -8926.88, -23859.84, -1084.31, -29176.09, -11448.59, -25478.62, -0.05, 0.93, 0.34
123, -5875.80, 46516.08, -8909.49, -23857.18, -1071.07, -29158.47, -11432.58, -25474.13, 0.00, 0.00, 0.00
124, -5889.06, 46655.89, -8911.68, -23877.79, -1055.18, -29161.61, -11447.38, -25498.56, 0.00, 0.00, 0.00
125, -5904.08, 46717.20, -8938.35, -23899.09, -1063.83, -29193.63, -11462.56, -25507.01, 0.00, 0.00, 0.00
126, -5892.68, 46585.82, -8945.06, -23879.51, -1088.40, -29188.38, -11454.26, -25476.32, 0.00, 0.00, 0.00
127, -5891.72, 46525.42, -8933.99, -23871.53, -1091.41, -29159.12, -11447.36, -25463.91, 0.00, 0.00, 0.00
128, -5902.40, 46648.29, -8928.67, -23886.95, -1072.93, -29158.25, -11450.24, -25477.46, 0.00, 0.00, 0.00
129, -5912.17, 46741.03, -8947.43, -23901.19, -1077.49, -29182.66, -11470.27, -25489.04, 0.00, 0.00, 0.00
130, -5900.15, 46626.48, -8958.83, -23887.60, -1107.15, -29187.31, -11473.26, -25469.37, 0.00, 0.00, 0.00
131, -5886.87, 46524.15, -8938.37, -23863.97, -1107.22, -29158.30, -11453.55, -25446.63, 0.00, 0.00, 0.00
132, -5897.53, 46626.92, -8923.80, -23870.59, -1096.15, -29146.41, -11455.04, -25462.35, -0.05, 0.93, 0.33
133, -5898.33, 46747.84, -8921.56, -23878.99, -1089.33, -29163.93, -11468.37, -25473.81, 0.00, 0.00, 0.00
134, -5892.79, 46669.12, -8934.42, -23872.02, -1111.71, -29182.01, -11476.10, -25465.59, 0.00, 0.00, 0.00
135, -5882.42, 46537.96, -8928.63, -23856.69, -1118.75, -29165.40, -11463.78, -25453.67, 0.00, 0.00, 0.00
136, -5880.27, 46604.82, -8906.21, -23856.98, -1092.26, -29147.48, -11454.69, -25464.54, 0.00, 0.00, 0.00
137, -5889.04, 46740.47, -8916.04, -23877.74, -1091.15, -29173.88, -11485.82, -25495.09, 0.00, 0.00, 0.00
138, -5880.32, 46694.51, -8931.69, -23872.13, -1107.66, -29193.77, -11490.47, -25488.07, 0.00, 0.00, 0.00
139, -5863.58, 46547.42, -8916.27, -23841.96, -1099.30, -29169.61, -11460.34, -25461.88, 0.00, 0.00, 0.00
140, -5865.79, 46582.57, -8897.09, -23840.35, -1073.53, -29150.79, -11447.96, -25470.08, 0.00, 0.00, 0.00
141, -5876.61, 46716.17, -8904.33, -23862.07, -1067.27, -29171.73, -11471.67, -25499.00, 0.00, 0.00, 0.00
142, -5862.68, 46697.82, -8914.97, -23857.29, -1075.41, -29194.37, -11471.88, -25489.64, -0.06, 0.93, 0.33
143, -5862.57, 46546.07, -8912.47, -23840.37, -1081.87, -29188.61, -11444.67, -25471.76, 0.00, 0.00, 0.00
144, -5880.39, 46547.02, -8899.01, -23842.76, -1067.85, -29170.63, -11430.68, -25477.68, 0.00, 0.00, 0.00
145, -5889.60, 46682.06, -8897.02, -23857.36, -1056.54, -29178.35, -11437.68, -25493.66, 0.00, 0.00, 0.00
146, -5885.24, 46709.94, -8914.34, -23861.02, -1067.12, -29203.13, -11450.26, -25496.59, 0.00, 0.00, 0.00
147, -5866.91, 46555.38, -8906.37, -23831.14, -1072.17, -29184.83, -11428.04, -25462.46, 0.00, 0.00, 0.00
148, -5862.42, 46506.18, -8883.79, -23820.68, -1054.04, -29151.30, -11409.54, -25449.54, 0.00, 0.00, 0.00
149, -5876.85, 46633.54, -8888.30, -23845.04, -1041.12, -29152.24, -11426.46, -25468.05, 0.00, 0.00, 0.00
150, -5896.79, 46698.07, -8921.90, -23871.60, -1057.66, -29182.48, -11453.08, -25483.85, 0.00, 0.00, 0.00
151, -5894.20, 46557.25, -8944.41, -23865.54, -1083.57, -29188.11, -11455.96, -25466.19, 0.00, 0.00, 0.00
152, -5883.18, 46469.59, -8930.50, -23847.10, -1076.77, -29154.25, -11436.58, -25445.13, -0.05, 0.93, 0.33
153, -5896.66, 46588.77, -8922.86, -23866.46, -1056.46, -29147.28, -11444.29, -25468.16, 0.00, 0.00, 0.00
154, -5906.94, 46681.75, -8946.11, -23892.27, -1075.72, -29183.76, -11484.19, -25493.37, 0.00, 0.00, 0.00
155, -5889.75, 46570.71, -8950.11, -23875.22, -1096.29, -29187.67, -11482.81, -25475.73, 0.00, 0.00, 0.00
156, -5878.04, 46470.50, -8928.16, -23854.85, -1089.92, -29158.03, -11461.48, -25458.72, 0.00, 0.00, 0.00
157, -5887.74, 46575.51, -8917.00, -23866.66, -1062.58, -29148.98, -11448.43, -25471.33, 0.00, 0.00, 0.00
158, -5888.66, 46702.49, -8928.85, -23883.26, -1064.81, -29173.32, -11468.39, -25489.73, 0.00, 0.00, 0.00
159, -5875.02, 46631.66, -8938.60, -23874.81, -1085.80, -29188.94, -11471.74, -25475.04, 0.00, 0.00, 0.00
160, -5864.45, 46505.57, -8925.34, -23849.58, -1088.06, -29166.34, -11450.37, -25454.41, 0.00, 0.00, 0.00
161, -5883.63, 46584.68, -8918.32, -23862.30, -1080.35, -29158.70, -11454.69, -25473.59, 0.00, 0.00, 0.00
162, -5887.67, 46730.14, -8921.90, -23874.34, -1070.07, -29170.46, -11469.15, -25493.08, -0.06, 0.93, 0.33
163, -5867.80, 46698.00, -8929.39, -23864.22, -1087.35, -29182.88, -11465.64, -25478.60, 0.00, 0.00, 0.00
164, -5859.11, 46549.90, -8920.09, -23843.05, -1091.35, -29167.75, -11442.33, -25453.99, 0.00, 0.00, 0.00
165, -5867.35, 46575.89, -8899.57, -23839.23, -1066.71, -29135.63, -11423.40, -25452.82, 0.00, 0.00, 0.00
166, -5883.18, 46728.15, -8903.82, -23859.30, -1051.34, -29143.68, -11434.79, -25476.96, 0.00, 0.00, 0.00
167, -5883.45, 46727.53, -8927.24, -23866.14, -1071.39, -29172.78, -11454.13, -25483.87, 0.00, 0.00, 0.00
168, -5872.52, 46565.97, -8928.16, -23846.83, -1092.73, -29162.68, -11437.32, -25461.72, 0.00, 0.00, 0.00
169, -5867.87, 46548.96, -8897.49, -23826.51, -1077.94, -29126.80, -11406.97, -25446.83, 0.00, 0.00, 0.00
170, -5879.63, 46699.34, -8890.32, -23838.83, -1061.89, -29126.15, -11416.44, -25467.35, 0.00, 0.00, 0.00
171, -5884.90, 46745.01, -8913.32, -23851.72, -1077.18, -29154.25, -11437.21, -25479.13, 0.00, 0.00, 0.00
172, -5874.98, 46598.51, -8915.22, -23833.80, -1083.93, -29147.28, -11407.75, -25453.79, -0.06, 0.93, 0.32
173, -5875.58, 46557.54, -8898.23, -23823.92, -1066.54, -29114.46, -11382.78, -25444.35, 0.00, 0.00, 0.00
174, -5883.58, 46700.53, -8890.32, -23835.38, -1050.40, -29105.26, -11391.48, -25460.58, 0.00, 0.00, 0.00
175, -5889.89, 46788.95, -8911.91, -23851.28, -1063.90, -29126.65, -11419.66, -25477.77, 0.00, 0.00, 0.00
176, -5877.70, 46658.50, -8925.39, -23836.35, -1088.66, -29126.04, -11421.76, -25458.48, 0.00, 0.00, 0.00
177, -5882.24, 46571.04, -8916.83, -23830.24, -1090.21, -29102.69, -11417.49, -25454.86, 0.00, 0.00, 0.00
178, -5899.41, 46692.82, -8917.16, -23848.73, -1075.48, -29095.87, -11426.84, -25475.49, 0.00, 0.00, 0.00
179, -5903.79, 46802.90, -8930.80, -23862.81, -1079.90, -29115.69, -11445.86, -25486.80, 0.00, 0.00, 0.00
180, -5889.17, 46698.45, -8934.95, -23846.38, -1095.39, -29118.11, -11430.73, -25459.87, 0.00, 0.00, 0.00
181, -5883.00, 46572.65, -8920.33, -23829.28, -1097.78, -29091.33, -11406.97, -25437.20, 0.00, 0.00, 0.00
182, -5885.86, 46655.29, -8900.17, -23830.80, -1073.44, -29073.65, -11403.75, -25444.13, -0.05, 0.93, 0.33
183, -5888.05, 46786.67, -8907.88, -23842.49, -1075.36, -29094.10, -11426.19, -25462.30, 0.00, 0.00, 0.00
184, -5882.40, 46726.01, -8921.56, -23836.32, -1094.14, -29114.73, -11442.35, -25454.52, 0.00, 0.00, 0.00
185, -5877.93, 46578.13, -8911.30, -23817.19, -1105.23, -29095.96, -11427.89, -25431.95, 0.00, 0.00, 0.00
186, -5879.09, 46626.61, -8890.47, -23818.04, -1084.42, -29069.34, -11414.05, -25437.27, 0.00, 0.00, 0.00
187, -5886.53, 46772.05, -8899.10, -23841.09, -1079.95, -29087.60, -11438.26, -25464.02, 0.00, 0.00, 0.00
188, -5864.34, 46741.59, -8908.87, -23828.54, -1098.86, -29102.84, -11445.75, -25452.38, 0.00, 0.00, 0.00
189, -5852.63, 46582.69, -8892.26, -23793.48, -1101.18, -29079.48, -11420.60, -25418.22, 0.00, 0.00, 0.00
190, -5868.70, 46603.79, -8882.05, -23801.28, -1082.16, -29068.55, -11416.89, -25430.96, 0.00, 0.00, 0.00
191, -5873.84, 46751.31, -8879.90, -23816.61, -1065.08, -29079.26, -11425.23, -25449.90, 0.00, 0.00, 0.00
192, -5864.47, 46765.66, -8891.52, -23811.63, -1075.63, -29100.07, -11435.91, -25446.14, -0.05, 0.92, 0.33
193, -5859.76, 46615.84, -8899.55, -23801.97, -1104.96, -29108.77, -11432.67, -25438.56, 0.00, 0.00, 0.00
194, -5869.12, 46592.46, -8882.52, -23801.97, -1086.27, -29101.10, -11403.30, -25441.63, 0.00, 0.00, 0.00
195, -5872.05, 46738.59, -8868.64, -23808.21, -1055.81, -29101.39, -11400.44, -25458.10, 0.00, 0.00, 0.00
196, -5876.36, 46799.39, -8885.67, -23820.01, -1073.58, -29131.81, -11423.40, -25474.33, 0.00, 0.00, 0.00
197, -5863.33, 46656.47, -8892.73, -23805.86, -1092.82, -29141.51, -11422.32, -25461.45, 0.00, 0.00, 0.00
198, -5853.34, 46600.68, -8872.46, -23789.72, -1081.73, -29113.48, -11405.80, -25452.15, 0.00, 0.00, 0.00
199, -5866.08, 46739.24, -8865.19, -23804.85, -1062.85, -29112.97, -11414.01, -25477.70, 0.00, 0.00, 0.00
200, -5868.23, 46835.62, -8876.19, -23814.42, -1076.37, -29135.19, -11438.33, -25492.37, 0.00, 0.00, 0.00
201, -5860.05, 46716.66, -8891.57, -23809.32, -1103.55, -29147.25, -11436.47, -25480.34, 0.00, 0.00, 0.00
202, -5856.25, 46623.34, -8879.30, -23796.78, -1088.93, -29123.43, -11406.01, -25461.12, -0.05, 0.92, 0.33
203, -5866.44, 46726.03, -8863.23, -23801.70, -1064.77, -29104.52, -11398.50, -25465.03, 0.00, 0.00, 0.00
204, -5878.24, 46843.82, -8879.21, -23822.47, -1061.89, -29122.96, -11424.42, -25482.89, 0.00, 0.00, 0.00
205, -5867.38, 46750.59, -8896.93, -23813.57, -1081.56, -29129.80, -11426.59, -25459.64, 0.00, 0.00, 0.00
206, -5855.69, 46630.16, -8882.27, -23790.26, -1076.46, -29096.81, -11395.30, -25425.87, 0.00, 0.00, 0.00
207, -5890.29, 46719.84, -8888.37, -23819.58, -1063.76, -29089.39, -11403.66, -25448.29, 0.00, 0.00, 0.00
208, -5902.42, 46849.99, -8901.94, -23839.16, -1058.60, -29100.49, -11423.51, -25458.28, 0.00, 0.00, 0.00
209, -5895.54, 46797.64, -8919.11, -23836.21, -1079.34, -29112.52, -11428.80, -25445.54, 0.00, 0.00, 0.00
210, -5885.66, 46655.82, -8915.98, -23819.16, -1083.66, -29095.76, -11415.06, -25425.64, 0.00, 0.00, 0.00
211, -5898.67, 46705.89, -8904.58, -23823.43, -1063.50, -29078.99, -11403.08, -25433.54, 0.00, 0.00, 0.00
212, -5909.73, 46857.84, -8910.61, -23841.06, -1059.83, -29092.07, -11419.68, -25454.72, -0.06, 0.92, 0.33
213, -5898.20, 46847.45, -8924.02, -23837.78, -1076.37, -29108.63, -11428.87, -25447.17, 0.00, 0.00, 0.00
214, -5889.28, 46686.94, -8921.27, -23814.08, -1090.90, -29096.03, -11415.19, -25418.09, 0.00, 0.00, 0.00
215, -5879.47, 46706.00, -8883.66, -23790.84, -1061.19, -29056.51, -11385.62, -25403.29, 0.00, 0.00, 0.00
216, -5895.97, 46869.57, -8886.65, -23810.11, -1044.41, -29068.58, -11400.71, -25430.09, 0.00, 0.00, 0.00
217, -5895.81, 46889.89, -8912.29, -23825.15, -1067.09, -29104.67, -11428.94, -25443.15, 0.00, 0.00, 0.00
218, -5879.34, 46724.62, -8917.83, -23809.10, -1084.08, -29101.14, -11417.92, -25421.73, 0.00, 0.00, 0.00
219, -5870.42, 46687.83, -8891.17, -23794.28, -1068.23, -29072.89, -11396.24, -25413.24, 0.00, 0.00, 0.00
220, -5883.90, 46834.50, -8883.46, -23807.69, -1048.72, -29077.72, -11411.73, -25440.44, 0.00, 0.00, 0.00
221, -5893.66, 46897.33, -8911.17, -23830.94, -1068.35, -29121.28, -11446.91, -25464.47, 0.00, 0.00, 0.00
222, -5886.09, 46749.01, -8929.77, -23826.60, -1100.20, -29138.85, -11449.84, -25454.43, -0.05, 0.93, 0.33
223, -5873.28, 46672.43, -8905.27, -23808.99, -1081.24, -29109.82, -11418.03, -25437.20, 0.00, 0.00, 0.00
224, -5875.76, 46808.84, -8887.30, -23818.35, -1047.36, -29103.00, -11414.81, -25450.52, 0.00, 0.00, 0.00
225, -5889.71, 46921.03, -8910.66, -23843.10, -1057.53, -29135.21, -11443.06, -25473.14, 0.00, 0.00, 0.00
226, -5888.25, 46813.92, -8930.59, -23841.98, -1086.54, -29149.76, -11442.06, -25461.14, 0.00, 0.00, 0.00
227, -5886.98, 46713.07, -8920.51, -23831.41, -1085.22, -29129.66, -11429.14, -25449.18, 0.00, 0.00, 0.00
228, -5891.96, 46817.45, -8906.25, -23832.52, -1058.33, -29109.32, -11426.50, -25455.35, 0.00, 0.00, 0.00
229, -5900.48, 46946.15, -8921.12, -23849.11, -1060.30, -29131.68, -11448.14, -25473.50, 0.00, 0.00, 0.00
230, -5885.77, 46864.72, -8930.88, -23836.88, -1082.03, -29142.14, -11442.33, -25452.76, 0.00, 0.00, 0.00
231, -5880.12, 46733.90, -8916.13, -23815.45, -1077.98, -29115.20, -11398.00, -25422.98, 0.00, 0.00, 0.00
232, -5889.51, 46805.18, -8905.29, -23820.86, -1056.84, -29094.57, -11394.79, -25430.61, -0.05, 0.93, 0.33
233, -5912.19, 46943.64, -8921.54, -23849.04, -1053.53, -29120.84, -11424.56, -25459.17, 0.00, 0.00, 0.00
234, -5901.31, 46893.69, -8936.16, -23843.77, -1070.09, -29134.07, -11430.26, -25446.68, 0.00, 0.00, 0.00
235, -5882.46, 46739.82, -8925.74, -23815.18, -1073.20, -29108.14, -11400.51, -25413.66, 0.00, 0.00, 0.00
236, -5899.61, 46775.34, -8916.16, -23822.69, -1051.92, -29094.08, -11394.02, -25429.20, 0.00, 0.00, 0.00
237, -5905.06, 46911.48, -8914.21, -23832.86, -1036.38, -29101.72, -11403.84, -25443.64, 0.00, 0.00, 0.00
238, -5898.76, 46906.32, -8928.90, -23831.32, -1061.51, -29123.29, -11415.55, -25443.06, 0.00, 0.00, 0.00
239, -5885.68, 46740.60, -8929.07, -23814.13, -1090.12, -29117.08, -11407.28, -25426.83, 0.00, 0.00, 0.00
240, -5883.81, 46731.77, -8908.22, -23807.96, -1074.98, -29093.14, -11382.56, -25424.97, 0.00, 0.00, 0.00
241, -5896.81, 46878.85, -8909.65, -23826.09, -1061.35, -29098.04, -11394.49, -25448.29, 0.00, 0.00, 0.00
242, -5893.91, 46908.22, -8926.48, -23832.93, -1091.97, -29126.67, -11419.42, -25456.74, -0.04, 0.93, 0.34
243, -5867.80, 46745.63, -8915.89, -23800.34, -1102.05, -29111.43, -11401.62, -25424.13, 0.00, 0.00, 0.00
244, -5867.49, 46704.41, -8896.15, -23792.67, -1090.63, -29089.48, -11391.99, -25422.96, 0.00, 0.00, 0.00
245, -5864.74, 46842.53, -8881.82, -23800.07, -1073.17, -29088.40, -11401.71, -25440.84, 0.00, 0.00, 0.00
246, -5863.00, 46922.97, -8895.84, -23812.47, -1090.43, -29113.73, -11427.02, -25454.28, 0.00, 0.00, 0.00
247, -5848.24, 46789.98, -8906.30, -23799.04, -1115.37, -29117.21, -11424.13, -25435.88, 0.00, 0.00, 0.00
248, -5845.47, 46707.39, -8887.37, -23786.88, -1108.11, -29100.65, -11402.76, -25427.32, 0.00, 0.00, 0.00
249, -5867.58, 46814.92, -8881.71, -23803.06, -1091.57, -29101.39, -11415.53, -25448.91, 0.00, 0.00, 0.00
250, -5885.64, 46909.79, -8906.14, -23833.04, -1093.34, -29133.98, -11446.53, -25481.68, 0.00, 0.00, 0.00
251, -5872.74, 46786.76, -8925.36, -23829.37, -1115.44, -29150.00, -11453.08, -25473.99, 0.00, 0.00, 0.00
252, -5860.90, 46664.03, -8901.13, -23803.29, -1096.71, -29114.42, -11420.44, -25446.39, -0.05, 0.92, 0.33
253, -5876.32, 46754.44, -8892.51, -23814.93, -1069.73, -29100.92, -11417.36, -25461.45, 0.00, 0.00, 0.00
254, -5884.70, 46877.11, -8905.34, -23833.15, -1070.36, -29118.11, -11433.95, -25477.01, 0.00, 0.00, 0.00
255, -5886.56, 46804.95, -8927.35, -23834.69, -1095.62, -29137.49, -11445.37, -25467.33, 0.00, 0.00, 0.00
0, -5881.53, 46664.43, -8920.27, -23819.09, -1100.35, -29116.72, -11425.81, -25444.85, 0.00, 0.00, 0.00
1, -5897.17, 46711.57, -8909.94, -23826.40, -1073.02, -29105.26, -11417.47, -25454.59, 0.00, 0.00, 0.00
2, -5904.62, 46840.47, -8911.28, -23837.40, -1050.04, -29115.38, -11421.09, -25462.01, 0.00, 0.00, 0.00
3, -5893.66, 46807.37, -8924.47, -23830.80, -1062.15, -29130.09, -11418.83, -25447.21, 0.00, 0.00, 0.00
4, -5887.87, 46652.52, -8923.29, -23814.53, -1076.55, -29113.53, -11391.34, -25419.25, 0.00, 0.00, 0.00
5, -5891.72, 46672.99, -8902.57, -23807.38, -1053.64, -29079.84, -11370.71, -25411.14, 0.00, 0.00, 0.00
6, -5902.45, 46815.64, -8904.13, -23824.70, -1044.61, -29090.15, -11384.57, -25425.85, -0.04, 0.92, 0.33
7, -5887.43, 46820.60, -8915.42, -23820.74, -1058.13, -29106.87, -11391.77, -25411.96, 0.00, 0.00, 0.00
8, -5888.14, 46684.77, -8928.20, -23819.94, -1083.55, -29111.29, -11387.68, -25401.46, 0.00, 0.00, 0.00
9, -5884.05, 46669.95, -8907.30, -23810.69, -1077.18, -29090.50, -11370.62, -25395.76, 0.00, 0.00, 0.00
10, -5885.01, 46814.34, -8894.29, -23820.21, -1062.47, -29091.38, -11381.66, -25416.48, 0.00, 0.00, 0.00
11, -5888.16, 46864.50, -8921.90, -23838.71, -1093.69, -29131.27, -11422.05, -25445.70, 0.00, 0.00, 0.00
12, -5867.78, 46726.72, -8920.60, -23810.22, -1106.81, -29129.04, -11408.87, -25423.14, 0.00, 0.00, 0.00
13, -5864.02, 46682.91, -8899.35, -23792.80, -1090.81, -29105.97, -11393.33, -25419.63, 0.00, 0.00, 0.00
14, -5876.56, 46824.82, -8892.84, -23807.60, -1075.45, -29108.99, -11405.45, -25446.21, 0.00, 0.00, 0.00
15, -5878.29, 46910.27, -8916.13, -23824.95, -1090.68, -29140.24, -11437.68, -25466.95, 0.00, 0.00, 0.00
16, -5860.72, 46779.76, -8925.32, -23810.78, -1108.91, -29140.50, -11437.68, -25449.88, -0.04, 0.92, 0.33
17, -5859.44, 46684.81, -8908.69, -23798.64, -1100.64, -29115.13, -11418.66, -25440.51, 0.00, 0.00, 0.00
18, -5874.33, 46790.94, -8903.91, -23816.72, -1087.84, -29115.65, -11427.13, -25467.17, 0.00, 0.00, 0.00
19, -5875.20, 46897.11, -8913.92, -23833.26, -1083.30, -29144.48, -11444.56, -25483.60, 0.00, 0.00, 0.00
20, -5850.77, 46800.73, -8922.28, -23818.24, -1093.16, -29153.51, -11442.73, -25462.66, 0.00, 0.00, 0.00
21, -5844.18, 46689.37, -8908.87, -23799.18, -1091.82, -29126.47, -11426.23, -25448.11, 0.00, 0.00, 0.00
22, -5861.66, 46767.80, -8898.70, -23812.30, -1070.80, -29118.35, -11421.54, -25461.16, 0.00, 0.00, 0.00
23, -5872.18, 46895.77, -8910.61, -23829.17, -1059.29, -29131.72, -11430.55, -25477.08, 0.00, 0.00, 0.00
24, -5866.75, 46835.15, -8931.73, -23827.90, -1083.68, -29149.69, -11440.58, -25472.67, 0.00, 0.00, 0.00
25, -5860.45, 46691.96, -8923.58, -23809.99, -1091.30, -29131.32, -11419.86, -25449.67, 0.00, 0.00, 0.00
26, -5868.09, 46737.07, -8903.30, -23806.64, -1061.17, -29106.44, -11398.29, -25445.78, -0.04, 0.92, 0.33
27, -5869.23, 46877.42, -8900.51, -23811.13, -1039.78, -29110.11, -11403.50, -25452.47, 0.00, 0.00, 0.00
28, -5863.85, 46856.12, -8917.92, -23813.37, -1059.47, -29127.03, -11412.35, -25444.91, 0.00, 0.00, 0.00
29, -5854.53, 46691.92, -8918.52, -23795.82, -1068.35, -29111.40, -11391.28, -25416.73, 0.00, 0.00, 0.00
30, -5870.46, 46691.18, -8914.75, -23809.61, -1054.02, -29096.81, -11379.09, -25419.56, 0.00, 0.00, 0.00
31, -5885.91, 46827.89, -8920.36, -23835.10, -1046.55, -29106.08, -11387.01, -25433.80, 0.00, 0.00, 0.00
32, -5884.07, 46837.05, -8936.21, -23842.98, -1060.08, -29127.72, -11391.68, -25429.09, 0.00, 0.00, 0.00
33, -5872.61, 46680.21, -8937.03, -23828.57, -1073.51, -29125.04, -11370.47, -25403.12, 0.00, 0.00, 0.00
34, -5879.47, 46653.30, -8919.11, -23825.19, -1057.37, -29109.28, -11354.22, -25404.68, 0.00, 0.00, 0.00
35, -5884.39, 46791.86, -8909.76, -23837.44, -1043.67, -29115.96, -11367.74, -25430.96, 0.00, 0.00, 0.00
36, -5883.14, 46848.70, -8927.33, -23845.78, -1063.72, -29146.81, -11392.62, -25445.61, -0.04, 0.92, 0.33
37, -5867.20, 46709.64, -8928.36, -23823.40, -1081.87, -29144.80, -11387.05, -25428.26, 0.00, 0.00, 0.00
38, -5863.58, 46649.30, -8905.63, -23807.89, -1078.52, -29120.54, -11378.96, -25422.78, 0.00, 0.00, 0.00
39, -5869.70, 46783.52, -8898.88, -23816.54, -1061.13, -29114.55, -11391.70, -25444.85, 0.00, 0.00, 0.00
40, -5878.26, 46874.27, -8917.00, -23828.30, -1076.91, -29139.30, -11423.89, -25463.02, 0.00, 0.00, 0.00
41, -5859.82, 46758.53, -8923.55, -23811.58, -1114.06, -29146.83, -11430.64, -25447.88, 0.00, 0.00, 0.00
42, -5844.18, 46663.38, -8905.52, -23791.08, -1109.29, -29121.46, -11413.60, -25433.71, 0.00, 0.00, 0.00
43, -5857.01, 46767.00, -8892.84, -23802.69, -1091.48, -29116.54, -11426.32, -25456.87, 0.00, 0.00, 0.00
44, -5872.18, 46882.74, -8906.70, -23819.05, -1101.09, -29143.79, -11453.84, -25476.74, 0.00, 0.00, 0.00
45, -5857.52, 46801.45, -8920.38, -23808.56, -1118.53, -29157.11, -11436.65, -25459.37, 0.00, 0.00, 0.00
46, -5847.13, 46678.62, -8904.08, -23792.25, -1110.01, -29133.35, -11402.74, -25435.86, -0.05, 0.92, 0.33
47, -5861.16, 46742.55, -8894.52, -23804.72, -1085.13, -29119.03, -11403.86, -25447.95, 0.00, 0.00, 0.00
48, -5865.86, 46871.70, -8902.05, -23816.81, -1073.98, -29128.44, -11418.05, -25460.98, 0.00, 0.00, 0.00
49, -5868.38, 46817.49, -8927.04, -23820.57, -1099.77, -29157.38, -11432.89, -25459.69, 0.00, 0.00, 0.00
50, -5854.35, 46666.06, -8917.61, -23796.36, -1100.33, -29135.52, -11406.30, -25429.82, 0.00, 0.00, 0.00
51, -5858.82, 46703.28, -8901.85, -23797.99, -1070.36, -29107.31, -11388.88, -25426.09, 0.00, 0.00, 0.00
52, -5878.64, 46842.53, -8910.46, -23821.91, -1054.71, -29118.67, -11401.09, -25448.24, 0.00, 0.00, 0.00
53, -5877.82, 46825.34, -8931.94, -23824.59, -1075.48, -29139.68, -11409.02, -25443.53, 0.00, 0.00, 0.00
54, -5870.69, 46661.50, -8931.91, -23804.25, -1085.51, -29125.53, -11393.49, -25414.11, 0.00, 0.00, 0.00
55, -5882.78, 46658.06, -8918.88, -23808.36, -1068.79, -29105.79, -11378.18, -25413.71, 0.00, 0.00, 0.00
56, -5891.94, 46802.85, -8919.28, -23828.59, -1055.65, -29107.51, -11384.57, -25429.27, -0.04, 0.93, 0.33
57, -5884.03, 46831.13, -8935.98, -23834.51, -1066.29, -29126.71, -11393.22, -25425.82, 0.00, 0.00, 0.00
58, -5869.17, 46678.42, -8937.03, -23819.22, -1067.79, -29121.39, -11373.26, -25398.98, 0.00, 0.00, 0.00
59, -5869.81, 46641.94, -8918.68, -23811.49, -1049.30, -29097.99, -11351.00, -25391.40, 0.00, 0.00, 0.00
60, -5887.31, 46778.00, -8919.33, -23831.41, -1031.69, -29105.99, -11360.01, -25415.68, 0.00, 0.00, 0.00
61, -5886.15, 46841.45, -8933.05, -23837.78, -1042.17, -29125.71, -11377.86, -25423.21, 0.00, 0.00, 0.00
62, -5866.22, 46703.63, -8934.04, -23814.42, -1064.81, -29127.63, -11367.87, -25401.08, 0.00, 0.00, 0.00
63, -5855.67, 46629.98, -8911.46, -23789.38, -1059.07, -29099.47, -11337.79, -25385.66, 0.00, 0.00, 0.00
64, -5871.71, 46759.51, -8907.62, -23809.61, -1044.77, -29105.52, -11353.63, -25418.43, 0.00, 0.00, 0.00
65, -5880.48, 46858.66, -8928.47, -23830.04, -1063.52, -29142.03, -11391.01, -25446.48, 0.00, 0.00, 0.00
66, -5863.42, 46752.88, -8940.25, -23814.51, -1089.38, -29150.21, -11393.49, -25432.69, -0.04, 0.93, 0.33
67, -5847.60, 46641.90, -8922.50, -23789.81, -1081.58, -29122.09, -11366.13, -25410.85, 0.00, 0.00, 0.00
68, -5866.57, 46735.86, -8912.62, -23800.96, -1064.17, -29110.22, -11372.17, -25432.80, 0.00, 0.00, 0.00
69, -5870.98, 46848.20, -8919.40, -23811.58, -1071.30, -29128.10, -11395.88, -25449.63, 0.00, 0.00, 0.00
70, -5860.43, 46778.91, -8929.97, -23800.67, -1090.18, -29137.20, -11398.00, -25433.47, 0.00, 0.00, 0.00
71, -5865.37, 46653.25, -8926.93, -23792.49, -1101.76, -29128.44, -11382.76, -25421.55, 0.00, 0.00, 0.00
72, -5865.63, 46713.11, -8905.99, -23785.59, -1072.91, -29108.54, -11369.08, -25422.11, 0.00, 0.00, 0.00
73, -5865.72, 46853.68, -8903.73, -23795.69, -1046.75, -29117.42, -11376.08, -25433.69, 0.00, 0.00, 0.00
74, -5868.05, 46828.20, -8928.09, -23802.01, -1067.54, -29146.56, -11396.95, -25436.91, 0.00, 0.00, 0.00
75, -5849.76, 46684.59, -8917.92, -23775.97, -1069.24, -29122.62, -11374.44, -25404.34, 0.00, 0.00, 0.00
76, -5861.92, 46718.34, -8904.60, -23784.58, -1054.06, -29105.90, -11364.65, -25413.91, -0.04, 0.92, 0.33
77, -5877.01, 46858.78, -8912.11, -23806.91, -1045.55, -29123.34, -11384.73, -25438.61, 0.00, 0.00, 0.00
78, -5881.77, 46854.78, -8936.43, -23815.60, -1062.49, -29146.56, -11400.80, -25440.29, 0.00, 0.00, 0.00
79, -5862.15, 46696.39, -8928.18, -23786.55, -1060.63, -29125.08, -11362.96, -25401.30, 0.00, 0.00, 0.00
80, -5867.42, 46697.02, -8909.49, -23785.88, -1048.88, -29101.32, -11353.68, -25401.17, 0.00, 0.00, 0.00
81, -5890.15, 46851.29, -8919.55, -23819.07, -1045.70, -29117.88, -11378.98, -25427.79, 0.00, 0.00, 0.00
82, -5895.00, 46900.42, -8947.27, -23830.04, -1071.05, -29137.78, -11398.52, -25429.82, 0.00, 0.00, 0.00
83, -5883.25, 46757.03, -8955.16, -23812.72, -1089.31, -29125.82, -11386.04, -25398.89, 0.00, 0.00, 0.00
84, -5882.35, 46715.95, -8929.50, -23800.14, -1060.46, -29088.63, -11353.57, -25376.20, 0.00, 0.00, 0.00
85, -5894.29, 46853.68, -8925.54, -23817.26, -1032.63, -29091.62, -11356.43, -25395.09, 0.00, 0.00, 0.00
86, -5898.04, 46932.07, -8946.93, -23834.47, -1042.80, -29123.47, -11383.03, -25413.71, -0.03, 0.92, 0.33
87, -5878.55, 46805.64, -8950.15, -23815.34, -1059.96, -29121.24, -11372.99, -25390.78, 0.00, 0.00, 0.00
88, -5876.05, 46730.52, -8931.91, -23803.58, -1048.83, -29095.91, -11356.07, -25384.34, 0.00, 0.00, 0.00
89, -5888.25, 46846.37, -8927.51, -23815.71, -1029.45, -29094.13, -11362.04, -25405.35, 0.00, 0.00, 0.00
90, -5897.42, 46950.04, -8947.83, -23837.84, -1041.17, -29131.63, -11394.00, -25432.06, 0.00, 0.00, 0.00
91, -5879.00, 46843.27, -8953.80, -23819.31, -1066.33, -29140.35, -11396.91, -25416.21, 0.00, 0.00, 0.00
92, -5863.24, 46729.81, -8932.61, -23793.86, -1069.29, -29112.45, -11375.34, -25398.44, 0.00, 0.00, 0.00
93, -5862.12, 46824.98, -8910.70, -23795.87, -1052.50, -29105.97, -11375.38, -25414.00, 0.00, 0.00, 0.00
94, -5867.69, 46968.14, -8921.14, -23813.57, -1051.29, -29130.92, -11401.40, -25445.40, 0.00, 0.00, 0.00
95, -5861.77, 46917.00, -8942.08, -23812.25, -1079.86, -29156.82, -11421.83, -25451.28, 0.00, 0.00, 0.00
96, -5838.66, 46787.07, -8916.58, -23777.16, -1080.82, -29133.04, -11393.02, -25423.92, -0.04, 0.93, 0.33
97, -5841.09, 46858.96, -8892.28, -23778.16, -1056.37, -29116.72, -11385.58, -25434.65, 0.00, 0.00, 0.00
98, -5841.49, 47020.04, -8890.09, -23790.17, -1046.62, -29128.30, -11399.86, -25451.33, 0.00, 0.00, 0.00
99, -5838.77, 47006.52, -8904.02, -23788.31, -1061.57, -29149.27, -11402.29, -25447.37, 0.00, 0.00, 0.00
100, -5833.49, 46849.95, -8904.51, -23768.91, -1066.98, -29135.81, -11386.27, -25424.28, 0.00, 0.00, 0.00
101, -5833.29, 46870.91, -8884.93, -23764.51, -1048.77, -29109.95, -11369.13, -25420.06, 0.00, 0.00, 0.00
102, -5844.35, 47035.36, -8884.44, -23782.61, -1035.13, -29111.51, -11379.09, -25437.42, 0.00, 0.00, 0.00
103, -5845.41, 47060.99, -8902.23, -23788.54, -1050.89, -29131.07, -11397.94, -25438.88, 0.00, 0.00, 0.00
104, -5842.28, 46905.27, -8912.15, -23781.45, -1077.71, -29127.61, -11393.09, -25419.90, 0.00, 0.00, 0.00
105, -5854.01, 46875.94, -8901.69, -23782.68, -1068.46, -29098.84, -11370.56, -25417.08, 0.00, 0.00, 0.00
106, -5883.02, 47014.81, -8918.48, -23815.83, -1059.72, -29106.08, -11391.66, -25447.13, -0.04, 0.93, 0.33
107, -5875.40, 47059.68, -8933.41, -23817.17, -1060.86, -29115.56, -11401.20, -25436.35, 0.00, 0.00, 0.00
108, -5867.47, 46903.35, -8937.25, -23802.73, -1071.12, -29103.29, -11378.71, -25401.08, 0.00, 0.00, 0.00
109, -5872.36, 46830.55, -8919.22, -23794.84, -1056.14, -29071.26, -11343.87, -25383.96, 0.00, 0.00, 0.00
110, -5885.04, 46958.27, -8909.05, -23809.95, -1040.09, -29059.32, -11344.18, -25401.17, 0.00, 0.00, 0.00
111, -5889.13, 47048.61, -8928.34, -23828.32, -1048.23, -29081.18, -11369.01, -25419.54, 0.00, 0.00, 0.00
112, -5870.60, 46924.58, -8936.12, -23809.46, -1066.02, -29080.89, -11363.60, -25401.68, 0.00, 0.00, 0.00
113, -5857.03, 46828.13, -8912.29, -23788.20, -1062.51, -29053.94, -11341.97, -25388.38, 0.00, 0.00, 0.00
114, -5867.22, 46934.37, -8898.47, -23800.61, -1044.85, -29047.46, -11348.29, -25411.03, 0.00, 0.00, 0.00
115, -5878.06, 47048.77, -8919.62, -23820.05, -1058.11, -29077.25, -11379.85, -25436.44, 0.00, 0.00, 0.00
116, -5858.41, 46960.72, -8925.41, -23800.72, -1082.32, -29085.18, -11384.57, -25422.54, -0.04, 0.93, 0.33
117, -5846.50, 46841.03, -8909.87, -23777.05, -1082.18, -29065.11, -11376.23, -25415.86, 0.00, 0.00, 0.00
118, -5852.78, 46920.76, -8896.31, -23780.49, -1067.32, -29052.75, -11382.76, -25437.71, 0.00, 0.00, 0.00
119, -5860.78, 47052.68, -8905.99, -23798.55, -1076.88, -29079.42, -11409.85, -25468.07, 0.00, 0.00, 0.00
120, -5844.62, 46997.02, -8914.17, -23788.67, -1096.62, -29094.48, -11422.10, -25463.58, 0.00, 0.00, 0.00
121, -5833.27, 46851.22, -8905.52, -23768.11, -1100.60, -29079.06, -11404.44, -25451.08, 0.00, 0.00, 0.00
122, -5831.99, 46885.93, -8880.50, -23760.15, -1075.72, -29057.20, -11385.82, -25452.20, 0.00, 0.00, 0.00
123, -5837.45, 47022.32, -8872.06, -23764.82, -1056.54, -29064.22, -11391.99, -25467.33, 0.00, 0.00, 0.00
124, -5837.90, 46996.51, -8892.31, -23767.55, -1078.61, -29089.54, -11410.59, -25467.91, 0.00, 0.00, 0.00
125, -5824.77, 46832.96, -8885.76, -23742.04, -1084.55, -29070.34, -11389.64, -25437.36, 0.00, 0.00, 0.00
126, -5824.42, 46836.61, -8859.69, -23730.27, -1057.06, -29039.88, -11364.83, -25430.72, -0.03, 0.93, 0.32
127, -5856.67, 46978.34, -8876.24, -23766.65, -1048.77, -29063.23, -11390.54, -25466.26, 0.00, 0.00, 0.00
128, -5850.73, 46985.85, -8892.17, -23768.71, -1053.88, -29081.59, -11403.05, -25455.89, 0.00, 0.00, 0.00
129, -5832.42, 46831.06, -8882.90, -23745.40, -1057.62, -29060.71, -11376.72, -25416.99, 0.00, 0.00, 0.00
130, -5843.89, 46806.16, -8867.52, -23746.80, -1043.80, -29034.71, -11354.55, -25408.32, 0.00, 0.00, 0.00
131, -5859.04, 46942.39, -8862.18, -23762.27, -1019.40, -29026.55, -11348.79, -25413.91, 0.00, 0.00, 0.00
132, -5860.87, 46992.62, -8881.49, -23773.45, -1031.58, -29045.82, -11356.14, -25409.33, 0.00, 0.00, 0.00
133, -5850.66, 46843.64, -8889.91, -23756.04, -1049.82, -29038.18, -11345.81, -25377.99, 0.00, 0.00, 0.00
134, -5861.59, 46765.46, -8883.12, -23759.88, -1041.61, -29020.34, -11329.92, -25368.20, 0.00, 0.00, 0.00
135, -5879.83, 46882.29, -8881.49, -23783.31, -1028.54, -29016.94, -11325.49, -25381.19, 0.00, 0.00, 0.00
136, -5871.96, 46971.32, -8888.48, -23787.42, -1039.09, -29032.26, -11334.17, -25379.62, -0.03, 0.92, 0.32
137, -5857.14, 46851.33, -8896.53, -23772.96, -1053.91, -29040.28, -11327.28, -25358.57, 0.00, 0.00, 0.00
138, -5853.25, 46741.50, -8881.44, -23757.13, -1041.19, -29019.25, -11309.98, -25349.47, 0.00, 0.00, 0.00
139, -5867.15, 46836.65, -8871.05, -23769.13, -1017.00, -29013.37, -11318.61, -25371.75, 0.00, 0.00, 0.00
140, -5871.00, 46953.82, -8883.86, -23786.99, -1024.05, -29038.40, -11348.14, -25398.33, 0.00, 0.00, 0.00
141, -5863.11, 46868.50, -8903.68, -23784.47, -1056.99, -29062.56, -11368.70, -25403.58, 0.00, 0.00, 0.00
142, -5848.94, 46733.76, -8897.16, -23765.16, -1069.40, -29050.92, -11364.10, -25396.77, 0.00, 0.00, 0.00
143, -5836.31, 46809.65, -8864.01, -23754.90, -1039.45, -29027.96, -11345.21, -25400.50, 0.00, 0.00, 0.00
144, -5846.48, 46952.88, -8873.28, -23777.81, -1036.76, -29057.67, -11374.15, -25437.00, 0.00, 0.00, 0.00
145, -5831.17, 46904.87, -8884.17, -23772.13, -1055.09, -29079.17, -11382.45, -25431.05, 0.00, 0.00, 0.00
146, -5826.38, 46756.56, -8881.60, -23760.51, -1067.50, -29075.13, -11369.77, -25420.46, -0.03, 0.93, 0.33
147, -5838.07, 46791.59, -8868.99, -23765.76, -1049.93, -29063.41, -11364.39, -25436.31, 0.00, 0.00, 0.00
148, -5845.70, 46945.21, -8872.23, -23784.36, -1044.09, -29079.60, -11384.59, -25462.01, 0.00, 0.00, 0.00
149, -5841.07, 46942.44, -8894.14, -23789.34, -1060.32, -29104.36, -11402.32, -25463.11, 0.00, 0.00, 0.00
150, -5831.97, 46771.67, -8895.30, -23768.40, -1072.70, -29089.54, -11382.71, -25436.35, 0.00, 0.00, 0.00
151, -5830.88, 46758.02, -8875.79, -23763.28, -1052.39, -29063.59, -11360.54, -25427.90, 0.00, 0.00, 0.00
152, -5854.88, 46897.60, -8881.73, -23790.77, -1040.27, -29072.38, -11372.19, -25449.00, 0.00, 0.00, 0.00
153, -5855.06, 46916.20, -8905.29, -23802.28, -1053.12, -29094.17, -11390.09, -25447.06, 0.00, 0.00, 0.00
154, -5846.14, 46759.91, -8911.15, -23788.00, -1062.89, -29084.76, -11367.38, -25416.30, 0.00, 0.00, 0.00
155, -5847.84, 46706.18, -8893.65, -23776.94, -1043.96, -29054.52, -11334.61, -25396.07, 0.00, 0.00, 0.00
156, -5869.05, 46830.50, -8895.57, -23796.27, -1023.24, -29050.31, -11340.74, -25411.23, -0.04, 0.92, 0.32
157, -5880.99, 46888.13, -8925.81, -23814.24, -1033.66, -29073.18, -11371.92, -25420.39, 0.00, 0.00, 0.00
158, -5866.82, 46744.54, -8934.01, -23795.60, -1050.13, -29064.35, -11357.37, -25385.21, 0.00, 0.00, 0.00
159, -5857.81, 46660.67, -8908.58, -23776.96, -1031.24, -29029.71, -11308.98, -25355.46, 0.00, 0.00, 0.00
160, -5873.39, 46775.89, -8897.27, -23791.29, -1013.12, -29022.85, -11306.25, -25366.81, 0.00, 0.00, 0.00
161, -5874.69, 46869.50, -8912.49, -23803.29, -1024.56, -29041.55, -11325.56, -25370.99, 0.00, 0.00, 0.00
162, -5852.56, 46760.41, -8914.90, -23781.72, -1043.40, -29037.55, -11310.07, -25337.38, 0.00, 0.00, 0.00
163, -5844.47, 46654.30, -8897.98, -23761.36, -1041.84, -29013.10, -11284.70, -25318.09, 0.00, 0.00, 0.00
164, -5855.80, 46751.76, -8891.37, -23774.57, -1027.71, -29006.53, -11289.62, -25336.89, 0.00, 0.00, 0.00
165, -5869.55, 46891.07, -8908.73, -23796.85, -1029.23, -29032.88, -11324.42, -25366.46, 0.00, 0.00, 0.00
166, -5855.35, 46825.90, -8919.71, -23784.07, -1058.60, -29047.10, -11323.44, -25350.59, -0.03, 0.93, 0.32
167, -5839.06, 46691.03, -8902.90, -23759.26, -1065.53, -29029.44, -11302.92, -25333.51, 0.00, 0.00, 0.00
168, -5845.23, 46754.75, -8884.42, -23761.49, -1045.53, -29016.79, -11310.41, -25351.37, 0.00, 0.00, 0.00
169, -5852.27, 46897.49, -8887.77, -23773.90, -1037.39, -29038.85, -11334.99, -25375.02, 0.00, 0.00, 0.00
170, -5832.35, 46855.04, -8890.81, -23755.54, -1055.65, -29052.17, -11334.35, -25362.99, 0.00, 0.00, 0.00
171, -5821.06, 46693.98, -8881.04, -23734.06, -1066.69, -29042.56, -11318.63, -25347.91, 0.00, 0.00, 0.00
172, -5843.28, 46711.79, -8875.65, -23753.60, -1058.22, -29049.15, -11323.82, -25376.98, 0.00, 0.00, 0.00
173, -5849.81, 46864.25, -8877.80, -23770.10, -1051.34, -29062.68, -11341.95, -25405.64, 0.00, 0.00, 0.00
174, -5849.23, 46877.71, -8896.73, -23774.70, -1069.93, -29088.80, -11365.39, -25419.32, 0.00, 0.00, 0.00
175, -5834.61, 46714.88, -8902.90, -23760.55, -1082.09, -29089.21, -11359.42, -25404.86, 0.00, 0.00, 0.00
176, -5823.21, 46693.84, -8875.63, -23740.79, -1052.86, -29054.43, -11330.81, -25390.06, -0.03, 0.93, 0.32
177, -5835.19, 46842.80, -8872.14, -23756.53, -1029.43, -29052.44, -11338.12, -25411.52, 0.00, 0.00, 0.00
178, -5849.74, 46882.63, -8903.68, -23784.13, -1052.63, -29090.28, -11372.37, -25433.02, 0.00, 0.00, 0.00
179, -5834.45, 46718.41, -8907.19, -23763.46, -1070.58, -29082.28, -11356.79, -25404.77, 0.00, 0.00, 0.00
180, -5825.22, 46658.55, -8880.57, -23744.01, -1049.84, -29042.80, -11319.84, -25382.69, 0.00, 0.00, 0.00
181, -5844.80, 46783.94, -8881.55, -23766.27, -1034.30, -29040.37, -11332.07, -25407.83, 0.00, 0.00, 0.00
182, -5852.51, 46848.09, -8906.19, -23783.89, -1050.46, -29060.71, -11346.57, -25414.09, 0.00, 0.00, 0.00
183, -5835.08, 46701.91, -8915.26, -23767.48, -1059.25, -29058.88, -11320.55, -25382.15, 0.00, 0.00, 0.00
184, -5839.17, 46604.14, -8897.54, -23754.14, -1035.24, -29026.06, -11281.68, -25357.29, 0.00, 0.00, 0.00
185, -5878.04, 46710.29, -8905.09, -23782.97, -1019.15, -29023.94, -11298.49, -25384.00, 0.00, 0.00, 0.00
186, -5883.14, 46802.56, -8925.01, -23802.89, -1025.48, -29045.98, -11323.46, -25392.38, -0.04, 0.93, 0.33
187, -5866.04, 46690.47, -8934.08, -23790.50, -1038.95, -29046.70, -11321.49, -25366.08, 0.00, 0.00, 0.00
188, -5860.20, 46567.46, -8921.45, -23773.38, -1035.71, -29018.69, -11297.26, -25345.92, 0.00, 0.00, 0.00
189, -5868.54, 46653.43, -8906.43, -23782.88, -1010.21, -29004.56, -11290.13, -25356.85, 0.00, 0.00, 0.00
190, -5881.21, 46783.38, -8919.49, -23809.90, -1004.42, -29036.08, -11309.63, -25381.79, 0.00, 0.00, 0.00
191, -5871.38, 46717.69, -8939.18, -23810.44, -1030.75, -29062.54, -11324.49, -25379.00, 0.00, 0.00, 0.00
192, -5847.31, 46573.50, -8924.16, -23783.06, -1037.10, -29040.17, -11300.80, -25351.04, 0.00, 0.00, 0.00
193, -5849.83, 46621.85, -8901.76, -23781.05, -1015.19, -29020.63, -11287.27, -25355.97, 0.00, 0.00, 0.00
194, -5865.16, 46762.13, -8908.38, -23801.97, -1013.92, -29049.94, -11313.04, -25388.07, 0.00, 0.00, 0.00
195, -5843.89, 46737.86, -8914.23, -23790.44, -1037.79, -29067.26, -11322.30, -25379.31, 0.00, 0.00, 0.00
196, -5827.90, 46581.88, -8899.79, -23761.02, -1048.94, -29046.47, -11308.06, -25356.73, -0.04, 0.93, 0.33
197, -5840.15, 46597.17, -8884.37, -23764.31, -1030.44, -29034.07, -11309.87, -25372.74, 0.00, 0.00, 0.00
198, -5849.47, 46742.77, -8884.46, -23781.05, -1018.84, -29046.72, -11324.02, -25399.25, 0.00, 0.00, 0.00
199, -5839.97, 46754.44, -8898.32, -23777.88, -1040.94, -29076.02, -11342.04, -25402.29, 0.00, 0.00, 0.00
200, -5813.17, 46606.27, -8884.06, -23742.85, -1046.37, -29058.09, -11321.47, -25371.35, 0.00, 0.00, 0.00
201, -5813.15, 46584.12, -8860.95, -23729.44, -1025.63, -29031.09, -11299.52, -25366.46, 0.00, 0.00, 0.00
202, -5838.74, 46723.44, -8862.00, -23753.47, -1013.34, -29045.91, -11319.46, -25400.66, 0.00, 0.00, 0.00
203, -5837.29, 46770.11, -8877.44, -23761.04, -1024.65, -29071.62, -11337.85, -25406.80, 0.00, 0.00, 0.00
204, -5817.65, 46619.66, -8872.28, -23735.34, -1029.03, -29061.47, -11319.19, -25373.07, 0.00, 0.00, 0.00
205, -5823.93, 46550.10, -8859.00, -23733.10, -1016.80, -29039.14, -11306.65, -25367.93, 0.00, 0.00, 0.00
206, -5844.00, 46668.63, -8861.77, -23758.32, -994.16, -29036.12, -11314.34, -25388.74, -0.04, 0.93, 0.32
207, -5854.28, 46742.10, -8887.23, -23782.19, -1012.00, -29062.34, -11335.42, -25398.20, 0.00, 0.00, 0.00
208, -5845.29, 46608.88, -8904.29, -23771.53, -1038.46, -29063.99, -11327.17, -25371.53, 0.00, 0.00, 0.00
209, -5843.35, 46505.44, -8891.01, -23754.20, -1028.96, -29034.04, -11292.46, -25347.79, 0.00, 0.00, 0.00
210, -5865.83, 46606.65, -8885.38, -23772.58, -1005.74, -29027.92, -11292.08, -25360.89, 0.00, 0.00, 0.00
211, -5881.17, 46712.71, -8902.86, -23791.96, -1003.68, -29041.42, -11309.02, -25372.94, 0.00, 0.00, 0.00
212, -5875.13, 46618.76, -8919.04, -23788.49, -1020.16, -29044.93, -11311.97, -25361.07, 0.00, 0.00, 0.00
213, -5865.41, 46486.48, -8911.84, -23772.51, -1026.82, -29023.43, -11297.82, -25342.76, 0.00, 0.00, 0.00
214, -5873.68, 46562.28, -8898.21, -23778.21, -1004.51, -29005.34, -11293.46, -25352.80, 0.00, 0.00, 0.00
215, -5879.27, 46689.44, -8908.47, -23795.15, -999.44, -29024.32, -11308.57, -25371.26, 0.00, 0.00, 0.00
216, -5870.98, 46627.82, -8920.67, -23791.89, -1023.80, -29047.16, -11312.60, -25362.21, -0.04, 0.93, 0.32
217, -5854.39, 46475.15, -8908.67, -23773.07, -1031.38, -29036.61, -11292.50, -25337.69, 0.00, 0.00, 0.00
218, -5859.55, 46521.09, -8892.06, -23774.90, -1008.42, -29021.30, -11271.25, -25342.56, 0.00, 0.00, 0.00
219, -5870.89, 46661.37, -8899.06, -23795.93, -1003.39, -29047.10, -11297.78, -25368.47, 0.00, 0.00, 0.00
220, -5856.51, 46643.91, -8908.51, -23792.11, -1021.81, -29072.71, -11314.05, -25367.75, 0.00, 0.00, 0.00
221, -5830.61, 46492.70, -8896.75, -23761.18, -1028.27, -29055.37, -11293.06, -25342.65, 0.00, 0.00, 0.00
222, -5838.63, 46506.00, -8884.19, -23762.90, -1018.37, -29042.43, -11286.33, -25354.34, 0.00, 0.00, 0.00
223, -5845.32, 46651.53, -8886.20, -23778.37, -1012.18, -29056.24, -11305.65, -25380.45, 0.00, 0.00, 0.00
224, -5834.12, 46666.95, -8902.01, -23777.85, -1031.67, -29077.43, -11330.95, -25384.12, 0.00, 0.00, 0.00
225, -5815.07, 46502.82, -8892.62, -23748.10, -1033.19, -29059.37, -11311.77, -25353.96, 0.00, 0.00, 0.00
226, -5827.03, 46457.81, -8884.08, -23745.98, -1022.86, -29040.50, -11305.15, -25363.48, -0.03, 0.93, 0.32
227, -5849.59, 46585.48, -8889.91, -23771.04, -1013.99, -29052.44, -11327.01, -25399.00, 0.00, 0.00, 0.00
228, -5848.38, 46629.78, -8907.75, -23783.87, -1023.62, -29086.03, -11351.31, -25415.77, 0.00, 0.00, 0.00
229, -5824.24, 46478.20, -8905.81, -23757.94, -1042.66, -29080.36, -11338.50, -25388.50, 0.00, 0.00, 0.00
230, -5828.75, 46396.25, -8894.59, -23752.46, -1042.91, -29061.02, -11321.69, -25386.37, 0.00, 0.00, 0.00
231, -5852.45, 46504.08, -8896.98, -23778.84, -1027.08, -29065.43, -11331.57, -25415.99, 0.00, 0.00, 0.00
232, -5855.08, 46578.78, -8907.01, -23789.86, -1026.17, -29082.90, -11346.33, -25423.92, 0.00, 0.00, 0.00
233, -5844.51, 46447.37, -8916.02, -23777.76, -1041.10, -29084.45, -11342.10, -25399.49, 0.00, 0.00, 0.00
234, -5839.66, 46317.13, -8898.14, -23759.75, -1024.69, -29050.92, -11309.69, -25369.21, 0.00, 0.00, 0.00
235, -5861.61, 46396.72, -8889.18, -23774.59, -1000.82, -29030.31, -11309.16, -25378.68, 0.00, 0.00, 0.00
236, -5873.90, 46500.97, -8909.56, -23793.25, -1003.06, -29041.20, -11322.34, -25385.75, -0.04, 0.92, 0.32
237, -5863.35, 46412.19, -8930.59, -23788.38, -1026.03, -29050.27, -11312.69, -25361.83, 0.00, 0.00, 0.00
238, -5845.76, 46268.58, -8911.44, -23756.75, -1020.13, -29009.05, -11276.43, -25321.80, 0.00, 0.00, 0.00
239, -5866.26, 46322.60, -8901.67, -23770.05, -994.45, -28993.88, -11269.50, -25334.83, 0.00, 0.00, 0.00
240, -5879.07, 46444.80, -8914.46, -23793.52, -983.34, -29017.64, -11290.29, -25357.29, 0.00, 0.00, 0.00
241, -5873.52, 46388.27, -8934.08, -23795.62, -1015.22, -29048.28, -11302.56, -25352.33, 0.00, 0.00, 0.00
242, -5852.04, 46224.32, -8917.54, -23761.89, -1023.35, -29026.35, -11269.50, -25317.73, 0.00, 0.00, 0.00
243, -5864.63, 46249.63, -8902.70, -23769.67, -1004.38, -29013.81, -11256.43, -25330.09, 0.00, 0.00, 0.00
244, -5873.86, 46395.36, -8905.07, -23787.40, -992.22, -29035.90, -11272.74, -25359.04, 0.00, 0.00, 0.00
245, -5870.82, 46399.36, -8925.54, -23795.69, -1008.15, -29066.70, -11301.15, -25372.16, 0.00, 0.00, 0.00
246, -5846.03, 46248.04, -8921.68, -23769.89, -1027.96, -29054.41, -11294.49, -25353.11, -0.04, 0.93, 0.32
247, -5853.39, 46241.93, -8907.71, -23771.33, -1026.82, -29042.43, -11297.31, -25370.55, 0.00, 0.00, 0.00
248, -5861.81, 46387.36, -8899.30, -23781.34, -1011.17, -29047.97, -11316.44, -25396.41, 0.00, 0.00, 0.00
249, -5850.95, 46424.17, -8909.52, -23783.11, -1018.86, -29077.49, -11335.73, -25400.54, 0.00, 0.00, 0.00
250, -5836.00, 46265.98, -8914.32, -23765.29, -1033.68, -29081.41, -11329.34, -25384.52, 0.00, 0.00, 0.00
251, -5832.69, 46203.47, -8891.72, -23754.09, -1015.53, -29057.02, -11314.14, -25381.23, 0.00, 0.00, 0.00
252, -5845.12, 46329.20, -8883.23, -23773.78, -988.86, -29059.64, -11327.06, -25409.39, 0.00, 0.00, 0.00
253, -5853.09, 46394.80, -8906.63, -23796.54, -1001.45, -29101.43, -11356.72, -25433.42, 0.00, 0.00, 0.00
254, -5834.05, 46252.62, -8911.89, -23778.23, -1028.65, -29105.72, -11345.83, -25411.00, 0.00, 0.00, 0.00
255, -5829.60, 46164.38, -8893.02, -23760.89, -1018.99, -29078.63, -11322.34, -25396.10, 0.00, 0.00, 0.00
0, -5839.97, 46273.38, -8881.76, -23771.30, -990.32, -29073.05, -11323.95, -25413.73, -0.04, 0.92, 0.33
1, -5847.80, 46362.90, -8898.88, -23791.40, -996.15, -29097.77, -11350.98, -25430.45, 0.00, 0.00, 0.00
2, -5848.38, 46246.79, -8924.69, -23789.14, -1030.06, -29117.75, -11366.78, -25422.49, 0.00, 0.00, 0.00
3, -5846.21, 46119.00, -8915.60, -23770.77, -1032.67, -29087.60, -11335.98, -25399.36, 0.00, 0.00, 0.00
4, -5850.01, 46195.76, -8896.87, -23771.68, -999.93, -29062.70, -11311.41, -25395.94, 0.00, 0.00, 0.00
5, -5857.86, 46305.82, -8905.99, -23789.61, -995.41, -29077.94, -11325.79, -25405.26, 0.00, 0.00, 0.00
6, -5855.51, 46222.80, -8925.14, -23788.00, -1018.64, -29091.73, -11331.91, -25391.60, 0.00, 0.00, 0.00
7, -5846.61, 46080.02, -8915.69, -23765.87, -1022.46, -29064.08, -11305.51, -25360.82, 0.00, 0.00, 0.00
8, -5859.26, 46131.00, -8902.66, -23775.86, -1001.16, -29041.31, -11287.72, -25361.03, 0.00, 0.00, 0.00
9, -5875.11, 46263.24, -8915.10, -23798.59, -996.98, -29054.07, -11293.53, -25371.84, 0.00, 0.00, 0.00
10, -5872.34, 46227.23, -8933.70, -23798.44, -1015.77, -29068.42, -11286.67, -25352.78, -0.05, 0.93, 0.32
11, -5867.82, 46065.36, -8941.41, -23786.41, -1022.84, -29052.33, -11272.12, -25328.24, 0.00, 0.00, 0.00
12, -5878.13, 46075.08, -8930.80, -23788.60, -997.85, -29027.05, -11263.98, -25329.71, 0.00, 0.00, 0.00
13, -5893.48, 46206.39, -8934.64, -23803.58, -980.28, -29032.08, -11277.55, -25344.51, 0.00, 0.00, 0.00
14, -5890.09, 46205.66, -8948.14, -23804.54, -994.16, -29051.32, -11291.01, -25341.65, 0.00, 0.00, 0.00
15, -5870.37, 46039.90, -8942.69, -23781.05, -1007.55, -29042.49, -11281.95, -25313.80, 0.00, 0.00, 0.00
16, -5872.29, 46019.43, -8916.83, -23768.15, -989.67, -29013.50, -11264.45, -25308.81, 0.00, 0.00, 0.00
17, -5887.72, 46155.70, -8913.18, -23783.37, -974.00, -29021.86, -11275.27, -25337.94, 0.00, 0.00, 0.00
18, -5884.19, 46193.25, -8924.96, -23791.46, -991.95, -29052.39, -11300.44, -25355.59, 0.00, 0.00, 0.00
19, -5856.18, 46044.75, -8919.17, -23762.76, -1010.61, -29051.19, -11291.79, -25333.18, 0.00, 0.00, 0.00
20, -5848.94, 46008.45, -8891.99, -23740.81, -996.31, -29023.38, -11268.83, -25324.03, -0.04, 0.93, 0.33
21, -5872.09, 46173.07, -8891.08, -23763.19, -981.42, -29039.18, -11286.09, -25362.50, 0.00, 0.00, 0.00
22, -5874.40, 46284.80, -8907.68, -23777.16, -997.80, -29074.90, -11318.14, -25384.38, 0.00, 0.00, 0.00
23, -5859.40, 46176.67, -8913.29, -23762.29, -1018.50, -29082.72, -11315.32, -25370.35, 0.00, 0.00, 0.00
24, -5862.06, 46106.19, -8896.89, -23747.14, -1012.89, -29056.91, -11291.77, -25359.04, 0.00, 0.00, 0.00
25, -5900.23, 46252.20, -8894.92, -23770.07, -990.58, -29056.46, -11297.73, -25384.63, 0.00, 0.00, 0.00
26, -5917.27, 46395.98, -8923.96, -23800.88, -998.16, -29094.19, -11329.58, -25413.73, 0.00, 0.00, 0.00
27, -5896.93, 46315.07, -8937.95, -23789.27, -1018.90, -29108.41, -11333.12, -25395.76, 0.00, 0.00, 0.00
28, -5899.47, 46207.25, -8922.41, -23770.90, -1016.74, -29084.13, -11306.21, -25375.02, 0.00, 0.00, 0.00
29, -5923.28, 46338.34, -8915.19, -23781.12, -1004.53, -29068.87, -11307.26, -25387.87, 0.00, 0.00, 0.00
30, -5946.77, 46530.38, -8932.45, -23808.90, -1006.66, -29088.02, -11335.37, -25411.07, -0.04, 0.93, 0.33
31, -5943.26, 46493.26, -8951.52, -23803.06, -1029.97, -29100.54, -11336.74, -25393.79, 0.00, 0.00, 0.00
32, -5927.95, 46400.59, -8936.58, -23771.35, -1029.45, -29066.50, -11301.02, -25352.69, 0.00, 0.00, 0.00
33, -5949.56, 46539.91, -8924.63, -23775.04, -1001.67, -29036.28, -11283.34, -25350.70, 0.00, 0.00, 0.00
34, -5987.67, 46764.16, -8949.24, -23809.86, -1001.51, -29058.63, -11311.46, -25380.54, 0.00, 0.00, 0.00
35, -5976.63, 46803.61, -8960.50, -23804.85, -1016.45, -29075.71, -11311.32, -25364.54, 0.00, 0.00, 0.00
36, -5968.07, 46698.36, -8955.65, -23784.80, -1015.28, -29060.49, -11282.65, -25334.61, 0.00, 0.00, 0.00
37, -5976.99, 46748.25, -8940.25, -23787.33, -984.57, -29040.53, -11264.43, -25333.36, 0.00, 0.00, 0.00
38, -5994.36, 46971.59, -8948.21, -23809.79, -970.27, -29053.85, -11271.98, -25351.77, 0.00, 0.00, 0.00
39, -5996.08, 47052.57, -8975.61, -23818.91, -991.30, -29081.12, -11289.33, -25357.32, 0.00, 0.00, 0.00
40, -5984.43, 46915.50, -8981.13, -23799.96, -1007.82, -29079.55, -11280.10, -25336.44, -0.04, 0.93, 0.33
41, -5968.94, 46905.13, -8945.91, -23774.43, -985.44, -29039.32, -11251.89, -25317.62, 0.00, 0.00, 0.00
42, -5982.71, 47085.69, -8936.88, -23790.37, -965.01, -29041.46, -11270.46, -25349.09, 0.00, 0.00, 0.00
43, -5988.35, 47165.09, -8958.44, -23804.54, -982.43, -29082.61, -11310.29, -25376.07, 0.00, 0.00, 0.00
44, -5967.27, 47039.09, -8952.01, -23776.76, -1008.20, -29082.55, -11307.26, -25356.73, 0.00, 0.00, 0.00
45, -5962.39, 47019.44, -8935.42, -23765.29, -1013.12, -29063.79, -11300.19, -25357.88, 0.00, 0.00, 0.00
46, -5971.98, 47212.11, -8926.21, -23776.58, -996.08, -29065.20, -11311.08, -25384.94, 0.00, 0.00, 0.00
47, -5979.85, 47375.44, -8937.64, -23791.06, -999.93, -29092.31, -11330.84, -25401.93, 0.00, 0.00, 0.00
48, -5968.56, 47291.06, -8950.46, -23776.91, -1025.99, -29099.31, -11332.09, -25388.65, 0.00, 0.00, 0.00
49, -5967.67, 47200.87, -8939.16, -23764.71, -1025.32, -29077.92, -11317.34, -25381.39, 0.00, 0.00, 0.00
50, -5978.64, 47325.57, -8927.46, -23778.66, -1000.80, -29065.45, -11319.24, -25399.49, -0.04, 0.93, 0.32
51, -5979.00, 47471.93, -8935.56, -23791.78, -994.67, -29084.09, -11337.74, -25414.63, 0.00, 0.00, 0.00
52, -5965.48, 47381.70, -8940.34, -23775.93, -1009.16, -29084.22, -11328.27, -25392.86, 0.00, 0.00, 0.00
53, -5957.97, 47237.91, -8927.67, -23759.88, -1019.51, -29055.52, -11303.72, -25374.17, 0.00, 0.00, 0.00
54, -5969.59, 47311.33, -8914.19, -23764.35, -1004.20, -29031.72, -11302.49, -25387.33, 0.00, 0.00, 0.00
55, -5986.22, 47455.84, -8923.93, -23789.65, -996.49, -29044.44, -11319.79, -25406.02, 0.00, 0.00, 0.00
56, -5985.93, 47388.22, -8947.54, -23796.18, -1017.32, -29061.31, -11311.35, -25389.26, 0.00, 0.00, 0.00
57, -5965.21, 47202.61, -8932.25, -23765.47, -1019.02, -29026.80, -11275.90, -25349.92, 0.00, 0.00, 0.00
58, -5970.53, 47219.49, -8909.05, -23761.22, -989.53, -28989.79, -11246.97, -25340.82, 0.00, 0.00, 0.00
59, -5992.77, 47355.32, -8921.05, -23790.39, -977.22, -28996.04, -11268.65, -25365.63, 0.00, 0.00, 0.00
60, -5993.04, 47333.93, -8939.27, -23794.62, -992.31, -29017.14, -11287.27, -25362.26, -0.05, 0.92, 0.32
61, -5974.38, 47158.43, -8927.82, -23765.25, -999.23, -28997.39, -11257.03, -25324.77, 0.00, 0.00, 0.00
62, -5972.30, 47143.29, -8894.03, -23749.38, -966.09, -28961.36, -11220.22, -25310.31, 0.00, 0.00, 0.00
63, -5990.02, 47277.87, -8893.58, -23771.64, -956.12, -28967.30, -11240.07, -25335.68, 0.00, 0.00, 0.00
64, -6006.09, 47287.21, -8931.69, -23798.37, -1001.60, -29009.08, -11286.49, -25365.07, 0.00, 0.00, 0.00
65, -5978.47, 47102.61, -8930.13, -23764.75, -1027.22, -28992.69, -11266.26, -25329.15, 0.00, 0.00, 0.00
66, -5968.27, 47050.27, -8904.73, -23744.73, -1011.84, -28955.25, -11243.62, -25316.79, 0.00, 0.00, 0.00
67, -5986.42, 47187.32, -8904.80, -23767.41, -1000.35, -28960.06, -11261.57, -25347.62, 0.00, 0.00, 0.00
68, -5986.15, 47246.69, -8916.16, -23779.19, -1018.77, -28993.07, -11289.15, -25365.23, 0.00, 0.00, 0.00
69, -5963.69, 47100.85, -8921.50, -23762.59, -1040.12, -29008.16, -11294.36, -25357.05, 0.00, 0.00, 0.00
70, -5950.62, 47019.71, -8898.83, -23746.65, -1029.32, -28987.31, -11278.29, -25352.13, -0.04, 0.92, 0.33
71, -5967.29, 47143.16, -8890.36, -23765.04, -1020.02, -28997.12, -11287.70, -25382.21, 0.00, 0.00, 0.00
72, -5956.40, 47236.03, -8892.17, -23765.40, -1022.23, -29017.46, -11303.84, -25391.40, 0.00, 0.00, 0.00
73, -5929.49, 47115.09, -8889.00, -23742.63, -1041.68, -29016.41, -11300.17, -25372.78, 0.00, 0.00, 0.00
74, -5923.82, 46995.48, -8868.30, -23723.96, -1044.56, -28992.85, -11281.08, -25361.41, 0.00, 0.00, 0.00
75, -5933.43, 47080.73, -8853.35, -23731.67, -1026.57, -28989.05, -11277.97, -25378.35, 0.00, 0.00, 0.00
76, -5947.62, 47189.52, -8875.83, -23760.11, -1028.20, -29023.67, -11308.91, -25413.26, 0.00, 0.00, 0.00
77, -5938.70, 47098.95, -8891.14, -23753.69, -1053.26, -29038.74, -11322.03, -25405.75, 0.00, 0.00, 0.00
78, -5918.32, 46953.50, -8865.62, -23720.77, -1048.39, -29003.15, -11288.10, -25370.66, 0.00, 0.00, 0.00
79, -5924.53, 47023.22, -8846.15, -23722.71, -1022.37, -28979.88, -11276.25, -25376.09, 0.00, 0.00, 0.00
80, -5942.75, 47180.02, -8865.24, -23751.46, -1018.81, -29005.14, -11304.04, -25401.59, 0.00, 0.00, 0.00
81, -5937.54, 47140.07, -8886.76, -23748.73, -1034.17, -29021.26, -11307.34, -25385.88, -0.04, 0.92, 0.32
82, -5922.18, 46978.09, -8877.49, -23723.49, -1027.33, -28992.29, -11272.74, -25345.07, 0.00, 0.00, 0.00
83, -5931.73, 47005.27, -8866.78, -23728.19, -1006.99, -28965.20, -11260.58, -25343.53, 0.00, 0.00, 0.00
84, -5944.02, 47151.50, -8874.58, -23749.29, -994.99, -28970.41, -11263.96, -25354.77, 0.00, 0.00, 0.00
85, -5940.29, 47144.30, -8891.23, -23750.11, -1007.21, -28982.32, -11267.38, -25340.42, 0.00, 0.00, 0.00
86, -5936.87, 46979.21, -8895.32, -23736.79, -1019.35, -28965.29, -11246.26, -25308.99, 0.00, 0.00, 0.00
87, -5953.70, 46962.20, -8893.49, -23744.64, -1006.10, -28946.96, -11233.58, -25311.88, 0.00, 0.00, 0.00
88, -5969.06, 47103.35, -8898.09, -23761.27, -986.32, -28946.89, -11244.04, -25329.80, 0.00, 0.00, 0.00
89, -5957.99, 47138.24, -8903.84, -23757.06, -992.55, -28954.56, -11250.15, -25318.92, 0.00, 0.00, 0.00
90, -5941.94, 46986.98, -8906.52, -23736.79, -1009.43, -28948.71, -11237.58, -25294.71, 0.00, 0.00, 0.00
91, -5950.28, 46944.23, -8897.98, -23735.29, -1003.44, -28933.08, -11229.90, -25296.23, -0.04, 0.92, 0.32
92, -5967.04, 47074.70, -8899.26, -23756.46, -992.17, -28945.29, -11246.46, -25325.42, 0.00, 0.00, 0.00
93, -5969.32, 47142.58, -8917.65, -23771.71, -1008.47, -28981.65, -11277.19, -25347.53, 0.00, 0.00, 0.00
94, -5953.03, 47002.81, -8921.81, -23758.54, -1037.17, -28994.71, -11282.69, -25335.54, 0.00, 0.00, 0.00
95, -5932.13, 46908.33, -8892.48, -23733.06, -1032.45, -28966.76, -11257.75, -25316.35, 0.00, 0.00, 0.00
96, -5933.43, 47019.66, -8869.33, -23739.00, -1010.72, -28959.95, -11262.53, -25336.95, 0.00, 0.00, 0.00
97, -5947.06, 47121.57, -8885.78, -23765.71, -1013.74, -29004.94, -11299.21, -25372.04, 0.00, 0.00, 0.00
98, -5923.23, 47006.34, -8889.80, -23746.09, -1032.07, -29013.52, -11301.65, -25356.98, 0.00, 0.00, 0.00
99, -5916.75, 46880.82, -8876.68, -23728.86, -1033.95, -28993.77, -11284.55, -25346.12, 0.00, 0.00, 0.00
100, -5926.05, 46960.72, -8860.97, -23736.84, -1011.68, -28984.40, -11282.87, -25361.81, 0.00, 0.00, 0.00
101, -5931.88, 47080.84, -8868.66, -23752.01, -1007.19, -29007.27, -11305.49, -25383.47, -0.04, 0.93, 0.32
102, -5920.33, 46999.75, -8884.75, -23745.91, -1029.72, -29024.34, -11311.64, -25375.31, 0.00, 0.00, 0.00
103, -5917.38, 46844.52, -8875.81, -23731.34, -1030.55, -29008.50, -11294.78, -25360.13, 0.00, 0.00, 0.00
104, -5933.27, 46896.46, -8867.09, -23744.75, -1006.16, -29000.29, -11292.03, -25376.72, 0.00, 0.00, 0.00
105, -5935.01, 47042.71, -8867.25, -23756.33, -992.95, -29007.91, -11300.06, -25392.56, 0.00, 0.00, 0.00
106, -5922.18, 47022.41, -8882.11, -23754.49, -1013.65, -29026.35, -11303.75, -25383.78, 0.00, 0.00, 0.00
107, -5904.35, 46867.11, -8871.70, -23729.88, -1017.09, -29005.37, -11273.79, -25351.68, 0.00, 0.00, 0.00
108, -5917.65, 46882.54, -8860.83, -23736.68, -996.06, -28983.53, -11259.09, -25354.52, 0.00, 0.00, 0.00
109, -5939.22, 47024.05, -8871.54, -23762.18, -984.35, -28997.14, -11271.74, -25373.86, 0.00, 0.00, 0.00
110, -5942.88, 47024.11, -8898.77, -23772.78, -997.54, -29022.44, -11284.08, -25368.87, 0.00, 0.00, 0.00
111, -5936.49, 46858.87, -8906.63, -23757.89, -1009.72, -29009.28, -11272.36, -25341.98, -0.04, 0.93, 0.32
112, -5943.15, 46826.19, -8897.16, -23754.00, -995.64, -28977.05, -11248.65, -25330.29, 0.00, 0.00, 0.00
113, -5960.47, 46960.84, -8897.49, -23772.44, -972.77, -28975.35, -11242.73, -25340.28, 0.00, 0.00, 0.00
114, -5959.24, 46998.12, -8915.33, -23780.58, -980.59, -28993.50, -11251.73, -25335.77, 0.00, 0.00, 0.00
115, -5944.25, 46845.59, -8917.09, -23762.45, -990.76, -28986.88, -11234.19, -25302.29, 0.00, 0.00, 0.00
116, -5939.19, 46786.38, -8893.42, -23748.75, -968.66, -28949.73, -11206.74, -25282.08, 0.00, 0.00, 0.00
117, -5953.52, 46923.75, -8888.60, -23764.96, -950.57, -28940.66, -11212.06, -25300.50, 0.00, 0.00, 0.00
118, -5964.94, 47011.84, -8913.56, -23783.62, -965.91, -28970.68, -11237.50, -25321.87, 0.00, 0.00, 0.00
119, -5957.19, 46893.58, -8932.90, -23773.27, -990.94, -28985.45, -11245.99, -25316.39, 0.00, 0.00, 0.00
120, -5951.17, 46801.64, -8921.23, -23758.47, -990.00, -28967.79, -11241.18, -25314.27, 0.00, 0.00, 0.00
121, -5953.07, 46908.73, -8902.88, -23764.29, -967.72, -28959.05, -11245.41, -25333.67, -0.05, 0.93, 0.32
122, -5965.17, 47015.42, -8913.61, -23785.88, -975.36, -28992.33, -11271.89, -25362.34, 0.00, 0.00, 0.00
123, -5942.35, 46911.32, -8913.81, -23768.22, -997.83, -29003.76, -11273.46, -25344.17, 0.00, 0.00, 0.00
124, -5931.57, 46779.05, -8901.89, -23752.59, -1007.86, -28991.42, -11264.32, -25335.81, 0.00, 0.00, 0.00
125, -5925.96, 46851.87, -8872.23, -23744.53, -975.65, -28965.07, -11252.96, -25337.42, 0.00, 0.00, 0.00
126, -5926.14, 46983.90, -8874.65, -23758.14, -967.92, -28988.00, -11274.47, -25360.56, 0.00, 0.00, 0.00
127, -5915.32, 46928.85, -8888.51, -23757.54, -997.54, -29018.24, -11287.76, -25363.71, 0.00, 0.00, 0.00
128, -5900.99, 46777.53, -8875.30, -23733.44, -1003.30, -29003.24, -11268.61, -25344.22, 0.00, 0.00, 0.00
129, -5897.49, 46814.30, -8846.57, -23723.09, -972.39, -28976.64, -11252.90, -25344.69, 0.00, 0.00, 0.00
130, -5908.26, 46953.30, -8846.31, -23739.59, -960.54, -28992.00, -11272.07, -25371.22, 0.00, 0.00, 0.00
131, -5909.71, 46926.55, -8868.86, -23746.87, -981.85, -29025.10, -11282.29, -25375.73, -0.05, 0.93, 0.32
132, -5888.54, 46760.52, -8860.83, -23718.53, -984.12, -29004.45, -11258.98, -25344.80, 0.00, 0.00, 0.00
133, -5886.58, 46766.62, -8841.37, -23715.27, -964.34, -28978.61, -11244.16, -25343.70, 0.00, 0.00, 0.00
134, -5916.22, 46907.26, -8857.28, -23754.34, -960.50, -29000.83, -11271.13, -25380.25, 0.00, 0.00, 0.00
135, -5914.70, 46909.54, -8872.75, -23753.18, -970.76, -29018.82, -11277.17, -25371.49, 0.00, 0.00, 0.00
136, -5906.72, 46747.64, -8875.43, -23733.71, -988.55, -29008.25, -11256.92, -25343.61, 0.00, 0.00, 0.00
137, -5913.13, 46707.57, -8865.80, -23734.78, -971.18, -28982.63, -11232.78, -25336.82, 0.00, 0.00, 0.00
138, -5931.10, 46832.98, -8873.82, -23759.46, -951.54, -28985.94, -11241.76, -25357.63, 0.00, 0.00, 0.00
139, -5940.22, 46879.74, -8907.35, -23777.45, -974.11, -29013.26, -11269.77, -25365.59, 0.00, 0.00, 0.00
140, -5921.04, 46731.84, -8911.68, -23754.76, -991.72, -28999.29, -11248.81, -25326.47, 0.00, 0.00, 0.00
141, -5920.49, 46652.96, -8894.97, -23741.46, -983.52, -28960.13, -11218.99, -25309.57, -0.05, 0.93, 0.32
142, -5939.95, 46756.05, -8893.38, -23763.79, -968.30, -28954.81, -11225.40, -25330.43, 0.00, 0.00, 0.00
143, -5946.08, 46831.17, -8915.82, -23786.12, -974.76, -28987.17, -11254.44, -25349.85, 0.00, 0.00, 0.00
144, -5938.10, 46710.70, -8926.88, -23774.12, -999.41, -28998.48, -11255.29, -25333.85, 0.00, 0.00, 0.00
145, -5926.70, 46603.90, -8904.51, -23752.71, -995.79, -28972.55, -11231.33, -25312.12, 0.00, 0.00, 0.00
146, -5931.37, 46700.10, -8887.01, -23759.93, -979.43, -28957.44, -11238.68, -25332.15, 0.00, 0.00, 0.00
147, -5949.88, 46814.16, -8907.21, -23784.85, -1002.50, -28992.49, -11275.25, -25366.90, 0.00, 0.00, 0.00
148, -5944.69, 46721.00, -8924.18, -23779.19, -1039.78, -29016.83, -11287.81, -25363.39, 0.00, 0.00, 0.00
149, -5925.54, 46580.79, -8905.81, -23752.44, -1042.11, -28995.67, -11270.24, -25342.16, 0.00, 0.00, 0.00
150, -5922.52, 46636.82, -8876.01, -23746.47, -1011.39, -28975.57, -11261.68, -25346.56, 0.00, 0.00, 0.00
151, -5919.10, 46770.60, -8870.16, -23754.23, -995.03, -28989.47, -11273.64, -25363.11, -0.05, 0.93, 0.32
152, -5907.86, 46728.69, -8885.80, -23752.21, -1011.33, -29013.03, -11282.91, -25363.98, 0.00, 0.00, 0.00
153, -5903.25, 46576.32, -8884.66, -23740.19, -1019.98, -29012.72, -11269.79, -25352.17, 0.00, 0.00, 0.00
154, -5908.08, 46602.85, -8863.61, -23743.12, -1005.52, -29000.38, -11261.23, -25362.01, 0.00, 0.00, 0.00
155, -5908.19, 46738.68, -8854.46, -23751.25, -988.44, -29004.38, -11270.73, -25376.29, 0.00, 0.00, 0.00
156, -5910.72, 46729.70, -8878.49, -23761.22, -1010.03, -29032.88, -11295.77, -25384.38, 0.00, 0.00, 0.00
157, -5904.01, 46569.07, -8886.63, -23748.30, -1032.09, -29024.97, -11283.00, -25364.80, 0.00, 0.00, 0.00
158, -5914.03, 46556.52, -8876.35, -23756.37, -1022.06, -29008.14, -11273.17, -25370.21, 0.00, 0.00, 0.00
159, -5928.55, 46690.91, -8878.49, -23780.15, -997.31, -29013.39, -11288.28, -25395.87, 0.00, 0.00, 0.00
160, -5934.32, 46714.52, -8902.95, -23793.14, -1007.80, -29038.96, -11310.54, -25403.25, 0.00, 0.00, 0.00
161, -5932.09, 46556.65, -8912.22, -23778.03, -1024.63, -29032.26, -11297.15, -25376.63, -0.04, 0.93, 0.32
162, -5936.47, 46505.44, -8899.70, -23773.83, -1011.66, -29005.86, -11271.47, -25363.91, 0.00, 0.00, 0.00
163, -5942.10, 46632.27, -8890.74, -23787.66, -992.33, -28998.62, -11266.22, -25370.28, 0.00, 0.00, 0.00
164, -5939.22, 46688.39, -8907.21, -23797.95, -991.75, -29017.73, -11279.07, -25369.59, 0.00, 0.00, 0.00
165, -5937.99, 46552.27, -8925.52, -23790.39, -1010.10, -29022.20, -11267.98, -25346.18, 0.00, 0.00, 0.00
166, -5943.13, 46465.68, -8909.38, -23774.12, -1001.22, -28983.57, -11227.97, -25323.16, 0.00, 0.00, 0.00
167, -5948.27, 46573.59, -8899.55, -23786.73, -976.48, -28973.34, -11216.87, -25331.88, 0.00, 0.00, 0.00
168, -5946.48, 46666.30, -8920.49, -23805.77, -982.36, -29002.48, -11238.90, -25346.90, 0.00, 0.00, 0.00
169, -5942.37, 46562.91, -8940.38, -23799.15, -1004.40, -29011.36, -11247.46, -25334.96, 0.00, 0.00, 0.00
170, -5942.77, 46442.81, -8932.11, -23785.83, -1014.75, -28992.78, -11238.19, -25323.97, 0.00, 0.00, 0.00
171, -5947.67, 46525.47, -8912.13, -23790.46, -994.74, -28975.48, -11237.25, -25335.50, -0.05, 0.93, 0.32
172, -5957.46, 46650.91, -8923.96, -23813.57, -997.07, -29007.29, -11268.48, -25364.47, 0.00, 0.00, 0.00
173, -5941.92, 46581.82, -8932.00, -23800.96, -1018.35, -29024.88, -11277.53, -25351.82, 0.00, 0.00, 0.00
174, -5921.25, 46449.83, -8909.49, -23767.37, -1016.20, -29001.14, -11251.96, -25325.53, 0.00, 0.00, 0.00
175, -5925.58, 46511.36, -8889.04, -23768.11, -991.21, -28988.76, -11248.78, -25337.74, 0.00, 0.00, 0.00
176, -5927.82, 46643.37, -8889.98, -23780.67, -981.02, -29007.62, -11268.54, -25361.56, 0.00, 0.00, 0.00
177, -5920.89, 46608.88, -8903.24, -23779.24, -1003.48, -29033.51, -11287.92, -25365.14, 0.00, 0.00, 0.00
178, -5900.28, 46461.95, -8894.05, -23755.23, -1016.71, -29020.74, -11269.53, -25341.54, 0.00, 0.00, 0.00
179, -5908.77, 46489.48, -8877.89, -23758.76, -1001.45, -29003.27, -11258.80, -25349.07, 0.00, 0.00, 0.00
180, -5925.13, 46628.29, -8883.95, -23779.26, -987.59, -29015.83, -11276.77, -25373.28, 0.00, 0.00, 0.00
181, -5918.38, 46633.76, -8899.41, -23776.94, -1004.29, -29036.39, -11292.73, -25371.38, -0.05, 0.93, 0.31
182, -5907.59, 46482.64, -8900.75, -23756.24, -1023.24, -29028.23, -11279.18, -25348.69, 0.00, 0.00, 0.00
183, -5903.19, 46469.12, -8870.49, -23741.55, -989.51, -28996.87, -11256.45, -25336.69, 0.00, 0.00, 0.00
184, -5923.64, 46608.35, -8872.77, -23769.45, -967.12, -29005.88, -11271.81, -25367.46, 0.00, 0.00, 0.00
185, -5924.13, 46649.95, -8895.99, -23781.92, -983.07, -29032.84, -11290.69, -25377.21, 0.00, 0.00, 0.00
186, -5917.65, 46504.73, -8905.27, -23767.14, -1004.13, -29032.93, -11280.97, -25356.31, 0.00, 0.00, 0.00
187, -5912.26, 46445.89, -8883.41, -23748.77, -993.76, -29003.04, -11255.00, -25340.39, 0.00, 0.00, 0.00
188, -5919.01, 46569.03, -8871.72, -23760.98, -973.57, -28992.69, -11256.81, -25352.98, 0.00, 0.00, 0.00
189, -5932.18, 46645.43, -8897.63, -23784.13, -986.34, -29018.84, -11274.31, -25367.24, 0.00, 0.00, 0.00
190, -5935.04, 46513.82, -8924.38, -23782.70, -1005.05, -29031.70, -11270.55, -25348.91, 0.00, 0.00, 0.00
191, -5926.81, 46415.72, -8909.14, -23766.14, -989.87, -29003.98, -11244.40, -25325.84, -0.04, 0.93, 0.31
192, -5931.04, 46517.02, -8897.20, -23770.99, -960.81, -28986.70, -11228.09, -25328.21, 0.00, 0.00, 0.00
193, -5943.19, 46617.78, -8915.71, -23790.73, -959.05, -29003.09, -11241.36, -25340.08, 0.00, 0.00, 0.00
194, -5952.47, 46516.88, -8948.68, -23795.87, -988.55, -29018.73, -11255.18, -25333.53, 0.00, 0.00, 0.00
195, -5944.51, 46385.19, -8941.32, -23775.57, -992.35, -28990.73, -11234.79, -25309.17, 0.00, 0.00, 0.00
196, -5954.19, 46454.95, -8931.38, -23787.20, -976.97, -28978.01, -11232.96, -25324.17, 0.00, 0.00, 0.00
197, -5958.91, 46575.87, -8939.42, -23804.65, -977.64, -28997.68, -11251.17, -25339.97, 0.00, 0.00, 0.00
198, -5954.66, 46517.31, -8957.24, -23804.09, -1004.29, -29027.18, -11263.00, -25335.43, 0.00, 0.00, 0.00
199, -5929.60, 46368.94, -8938.89, -23772.62, -1012.02, -29010.84, -11244.74, -25308.97, 0.00, 0.00, 0.00
200, -5929.96, 46420.17, -8915.24, -23769.29, -987.12, -28995.82, -11241.29, -25320.99, 0.00, 0.00, 0.00
201, -5936.69, 46556.38, -8919.62, -23786.23, -975.34, -29021.32, -11263.18, -25351.48, -0.04, 0.93, 0.31
202, -5934.30, 46533.58, -8936.58, -23788.69, -996.57, -29051.77, -11287.63, -25360.45, 0.00, 0.00, 0.00
203, -5910.54, 46378.44, -8922.73, -23753.38, -1001.94, -29026.91, -11261.64, -25331.54, 0.00, 0.00, 0.00
204, -5919.59, 46388.00, -8905.11, -23752.17, -989.36, -29008.56, -11250.10, -25339.32, 0.00, 0.00, 0.00
205, -5923.41, 46526.63, -8896.87, -23760.78, -974.40, -29016.72, -11260.09, -25360.31, 0.00, 0.00, 0.00
206, -5912.35, 46535.61, -8905.34, -23757.91, -990.34, -29040.77, -11278.51, -25363.62, 0.00, 0.00, 0.00
207, -5890.00, 46380.49, -8900.67, -23733.73, -1003.62, -29038.40, -11267.16, -25341.33, 0.00, 0.00, 0.00
208, -5892.05, 46354.75, -8883.63, -23728.92, -988.08, -29022.93, -11259.20, -25345.63, 0.00, 0.00, 0.00
209, -5912.89, 46482.48, -8891.28, -23753.94, -980.86, -29027.54, -11278.04, -25373.90, 0.00, 0.00, 0.00
210, -5919.90, 46530.14, -8919.35, -23774.23, -998.99, -29057.13, -11305.09, -25392.21, 0.00, 0.00, 0.00
211, -5901.91, 46384.67, -8926.28, -23755.30, -1016.80, -29059.64, -11290.11, -25363.28, -0.04, 0.93, 0.32
212, -5901.84, 46322.13, -8903.08, -23739.05, -996.80, -29020.54, -11260.21, -25345.83, 0.00, 0.00, 0.00
213, -5925.31, 46435.10, -8899.82, -23762.68, -970.45, -29015.29, -11263.13, -25365.90, 0.00, 0.00, 0.00
214, -5930.23, 46508.37, -8913.58, -23778.88, -965.80, -29036.79, -11275.18, -25371.64, 0.00, 0.00, 0.00
215, -5918.61, 46386.21, -8920.67, -23766.59, -979.03, -29037.17, -11267.74, -25348.91, 0.00, 0.00, 0.00
216, -5920.95, 46293.32, -8911.84, -23757.94, -974.11, -29008.56, -11247.89, -25334.18, 0.00, 0.00, 0.00
217, -5927.82, 46395.20, -8904.58, -23766.10, -949.19, -28993.25, -11237.50, -25340.04, 0.00, 0.00, 0.00
218, -5943.26, 46507.14, -8931.20, -23793.07, -953.35, -29016.47, -11256.18, -25358.61, 0.00, 0.00, 0.00
219, -5940.47, 46411.61, -8956.70, -23789.52, -974.36, -29027.54, -11256.38, -25339.35, 0.00, 0.00, 0.00
220, -5943.04, 46278.41, -8952.05, -23773.74, -970.74, -29000.07, -11229.83, -25312.43, 0.00, 0.00, 0.00
221, -5965.26, 46348.44, -8941.19, -23791.29, -950.44, -28983.46, -11223.17, -25324.32, -0.05, 0.93, 0.31
222, -5981.75, 46473.32, -8958.29, -23820.57, -954.53, -29006.48, -11243.80, -25346.56, 0.00, 0.00, 0.00
223, -5974.71, 46416.50, -8974.38, -23817.91, -975.14, -29026.55, -11242.86, -25332.42, 0.00, 0.00, 0.00
224, -5962.69, 46264.29, -8966.40, -23796.65, -990.81, -29012.96, -11228.98, -25305.35, 0.00, 0.00, 0.00
225, -5962.60, 46299.80, -8941.68, -23789.12, -971.61, -28990.30, -11215.64, -25304.25, 0.00, 0.00, 0.00
226, -5971.54, 46444.98, -8942.20, -23803.89, -960.61, -29007.80, -11227.15, -25324.06, 0.00, 0.00, 0.00
227, -5961.48, 46432.08, -8958.76, -23802.97, -977.58, -29028.37, -11243.51, -25321.82, 0.00, 0.00, 0.00
228, -5961.48, 46283.44, -8964.77, -23793.30, -994.45, -29028.68, -11239.57, -25310.69, 0.00, 0.00, 0.00
229, -5955.13, 46284.16, -8938.40, -23778.43, -973.51, -29003.31, -11226.86, -25307.70, 0.00, 0.00, 0.00
230, -5953.30, 46438.96, -8922.53, -23784.31, -944.81, -28998.53, -11236.24, -25324.53, 0.00, 0.00, 0.00
231, -5954.55, 46471.98, -8946.98, -23800.36, -971.00, -29034.07, -11271.92, -25344.40, -0.05, 0.93, 0.32
232, -5935.13, 46319.41, -8952.79, -23785.21, -1002.72, -29042.04, -11271.58, -25334.56, 0.00, 0.00, 0.00
233, -5928.64, 46281.92, -8931.33, -23775.86, -988.60, -29022.64, -11258.19, -25334.85, 0.00, 0.00, 0.00
234, -5940.80, 46413.30, -8924.31, -23791.62, -965.01, -29029.15, -11267.16, -25360.00, 0.00, 0.00, 0.00
235, -5940.02, 46471.29, -8936.34, -23798.37, -978.29, -29060.82, -11289.26, -25370.46, 0.00, 0.00, 0.00
236, -5919.73, 46333.64, -8940.27, -23779.89, -1012.53, -29065.85, -11283.21, -25349.92, 0.00, 0.00, 0.00
237, -5908.33, 46261.71, -8918.70, -23760.28, -1004.96, -29034.00, -11254.26, -25336.46, 0.00, 0.00, 0.00
238, -5924.98, 46377.54, -8908.78, -23770.34, -983.57, -29027.81, -11258.39, -25355.91, 0.00, 0.00, 0.00
239, -5929.38, 46455.82, -8917.12, -23774.81, -982.36, -29043.36, -11279.79, -25361.25, 0.00, 0.00, 0.00
240, -5906.69, 46342.12, -8914.70, -23748.66, -992.84, -29037.02, -11269.75, -25330.58, 0.00, 0.00, 0.00
241, -5904.46, 46234.31, -8909.70, -23737.33, -998.63, -29014.08, -11255.24, -25320.48, -0.05, 0.93, 0.32
242, -5915.43, 46318.67, -8895.52, -23743.05, -967.43, -28994.93, -11236.38, -25324.57, 0.00, 0.00, 0.00
243, -5938.23, 46423.81, -8918.14, -23768.78, -960.32, -29018.08, -11253.39, -25346.59, 0.00, 0.00, 0.00
244, -5934.05, 46322.83, -8937.30, -23765.31, -973.78, -29030.76, -11252.81, -25329.42, 0.00, 0.00, 0.00
245, -5934.72, 46174.90, -8935.71, -23755.28, -975.81, -29013.14, -11232.49, -25312.17, 0.00, 0.00, 0.00
246, -5947.60, 46220.52, -8925.30, -23766.41, -956.99, -28997.59, -11222.25, -25321.49, 0.00, 0.00, 0.00
247, -5956.27, 46341.02, -8929.37, -23783.75, -947.62, -29009.66, -11229.20, -25335.63, 0.00, 0.00, 0.00
248, -5958.10, 46288.89, -8952.70, -23789.45, -968.52, -29035.38, -11236.02, -25330.36, 0.00, 0.00, 0.00
249, -5945.77, 46129.48, -8949.10, -23770.14, -977.93, -29016.03, -11211.88, -25301.64, 0.00, 0.00, 0.00
250, -5947.67, 46144.04, -8927.87, -23767.68, -955.67, -28993.61, -11192.79, -25301.50, 0.00, 0.00, 0.00
251, -5965.99, 46282.53, -8935.65, -23793.86, -943.76, -29015.38, -11220.51, -25333.85, -0.04, 0.93, 0.32
252, -5968.25, 46271.98, -8964.68, -23804.76, -972.19, -29051.84, -11249.90, -25347.79, 0.00, 0.00, 0.00
253, -5950.62, 46111.42, -8960.39, -23776.89, -986.67, -29039.52, -11233.85, -25321.93, 0.00, 0.00, 0.00
254, -5950.19, 46095.87, -8936.32, -23764.60, -972.21, -29012.83, -11224.64, -25320.26, 0.00, 0.00, 0.00
255, -5957.01, 46234.65, -8929.32, -23776.15, -956.25, -29018.64, -11239.84, -25344.53, 0.00, 0.00, 0.00
0, -5937.67, 46275.53, -8937.97, -23772.02, -971.90, -29044.77, -11259.13, -25348.24, 0.00, 0.00, 0.00
1, -5907.03, 46131.68, -8927.49, -23740.21, -999.26, -29035.94, -11252.09, -25321.84, 0.00, 0.00, 0.00
2, -5910.18, 46096.38, -8908.24, -23733.73, -987.12, -29011.78, -11233.41, -25323.34, 0.00, 0.00, 0.00
3, -5925.67, 46232.48, -8900.71, -23754.76, -961.84, -29014.55, -11243.91, -25353.07, 0.00, 0.00, 0.00
4, -5927.86, 46300.90, -8910.10, -23764.02, -966.87, -29035.21, -11269.30, -25365.29, 0.00, 0.00, 0.00
5, -5916.48, 46171.50, -8925.59, -23757.85, -1008.42, -29041.62, -11283.92, -25359.15, -0.04, 0.93, 0.32
6, -5911.88, 46086.88, -8916.47, -23753.15, -1017.88, -29016.99, -11277.35, -25357.34, 0.00, 0.00, 0.00
7, -5923.90, 46193.97, -8899.86, -23763.68, -1000.49, -28999.02, -11271.92, -25367.73, 0.00, 0.00, 0.00
8, -5933.83, 46288.18, -8911.44, -23778.59, -1008.22, -29013.32, -11297.93, -25383.18, 0.00, 0.00, 0.00
9, -5921.25, 46182.37, -8922.95, -23768.96, -1027.00, -29017.53, -11292.97, -25364.74, 0.00, 0.00, 0.00
10, -5906.25, 46067.48, -8905.83, -23745.55, -1015.89, -28986.52, -11257.37, -25336.51, 0.00, 0.00, 0.00
11, -5926.19, 46144.06, -8894.41, -23755.61, -988.24, -28965.22, -11251.35, -25346.45, 0.00, 0.00, 0.00
12, -5945.54, 46253.31, -8919.40, -23783.15, -989.47, -28988.71, -11276.30, -25372.18, 0.00, 0.00, 0.00
13, -5934.77, 46179.51, -8932.56, -23773.83, -998.36, -28994.99, -11274.96, -25351.73, 0.00, 0.00, 0.00
14, -5927.32, 46038.54, -8921.83, -23753.22, -993.29, -28967.32, -11241.43, -25322.76, 0.00, 0.00, 0.00
15, -5933.58, 46085.85, -8902.57, -23750.34, -968.08, -28935.20, -11223.53, -25322.00, -0.05, 0.93, 0.31
16, -5946.26, 46215.05, -8909.05, -23774.90, -962.67, -28948.84, -11241.63, -25343.23, 0.00, 0.00, 0.00
17, -5941.23, 46177.43, -8930.21, -23780.89, -984.62, -28972.78, -11246.37, -25335.01, 0.00, 0.00, 0.00
18, -5936.24, 46023.38, -8929.54, -23766.79, -996.91, -28962.05, -11220.96, -25310.06, 0.00, 0.00, 0.00
19, -5952.31, 46034.94, -8919.93, -23773.29, -983.63, -28941.48, -11213.58, -25319.09, 0.00, 0.00, 0.00
20, -5962.10, 46167.88, -8921.52, -23793.14, -972.21, -28953.13, -11230.88, -25344.66, 0.00, 0.00, 0.00
21, -5949.34, 46167.44, -8933.95, -23793.19, -997.54, -28982.77, -11252.18, -25349.04, 0.00, 0.00, 0.00
22, -5927.44, 46017.05, -8922.08, -23760.93, -1010.23, -28965.29, -11234.92, -25316.57, 0.00, 0.00, 0.00
23, -5929.67, 45994.59, -8901.18, -23750.49, -999.23, -28936.48, -11226.66, -25317.64, 0.00, 0.00, 0.00
24, -5934.01, 46133.46, -8897.83, -23764.62, -991.72, -28941.53, -11242.97, -25343.64, 0.00, 0.00, 0.00
25, -5930.28, 46181.36, -8918.50, -23775.42, -1007.15, -28977.07, -11270.04, -25357.92, -0.04, 0.93, 0.31
26, -5920.84, 46041.39, -8923.80, -23762.07, -1031.04, -28986.88, -11276.99, -25348.60, 0.00, 0.00, 0.00
27, -5909.89, 45980.78, -8898.12, -23741.13, -1020.25, -28958.63, -11260.61, -25336.06, 0.00, 0.00, 0.00
28, -5916.46, 46105.28, -8886.58, -23754.90, -997.22, -28959.01, -11257.23, -25358.63, 0.00, 0.00, 0.00
29, -5911.37, 46183.33, -8896.15, -23765.20, -1006.81, -28988.09, -11278.60, -25374.28, 0.00, 0.00, 0.00
30, -5897.04, 46061.80, -8897.58, -23745.69, -1022.23, -28994.37, -11276.41, -25355.44, 0.00, 0.00, 0.00
31, -5886.38, 45968.91, -8873.84, -23722.26, -1015.02, -28963.23, -11251.78, -25338.09, 0.00, 0.00, 0.00
32, -5891.18, 46068.84, -8861.53, -23732.95, -993.91, -28954.05, -11255.31, -25358.43, 0.00, 0.00, 0.00
33, -5885.97, 46172.51, -8866.18, -23741.62, -987.03, -28969.13, -11275.16, -25368.80, 0.00, 0.00, 0.00
34, -5866.64, 46077.23, -8874.20, -23722.58, -1000.44, -28975.26, -11267.98, -25348.08, 0.00, 0.00, 0.00
35, -5855.62, 45957.60, -8859.69, -23698.23, -1000.35, -28945.44, -11240.85, -25321.08, -0.04, 0.92, 0.32
36, -5879.31, 46024.18, -8855.34, -23715.45, -981.71, -28937.73, -11242.99, -25338.21, 0.00, 0.00, 0.00
37, -5892.28, 46141.49, -8875.36, -23742.18, -972.26, -28961.15, -11267.36, -25363.06, 0.00, 0.00, 0.00
38, -5888.88, 46073.89, -8899.77, -23743.18, -995.32, -28986.54, -11272.90, -25352.15, 0.00, 0.00, 0.00
39, -5888.43, 45924.63, -8895.77, -23726.40, -1003.06, -28964.57, -11248.81, -25327.52, 0.00, 0.00, 0.00
40, -5897.04, 45963.41, -8881.55, -23729.71, -975.12, -28940.01, -11220.96, -25326.31, 0.00, 0.00, 0.00
41, -5904.75, 46091.17, -8883.34, -23747.28, -952.43, -28949.62, -11221.04, -25338.43, 0.00, 0.00, 0.00
42, -5898.00, 46066.72, -8901.07, -23748.91, -960.16, -28968.31, -11226.81, -25328.19, 0.00, 0.00, 0.00
43, -5888.81, 45908.22, -8902.74, -23731.90, -973.82, -28954.63, -11211.03, -25298.13, 0.00, 0.00, 0.00
44, -5894.69, 45907.55, -8886.70, -23732.21, -965.95, -28930.58, -11197.82, -25294.96, 0.00, 0.00, 0.00
45, -5919.30, 46036.43, -8894.74, -23761.11, -964.77, -28943.54, -11224.96, -25325.17, -0.04, 0.93, 0.32
46, -5923.01, 46048.14, -8912.67, -23769.07, -985.51, -28967.03, -11239.42, -25328.71, 0.00, 0.00, 0.00
47, -5905.58, 45892.85, -8911.62, -23747.92, -997.45, -28962.96, -11221.51, -25301.84, 0.00, 0.00, 0.00
48, -5898.00, 45852.25, -8883.83, -23734.31, -978.76, -28934.24, -11201.00, -25292.56, 0.00, 0.00, 0.00
49, -5917.94, 45981.49, -8886.74, -23760.78, -969.71, -28947.21, -11225.69, -25327.07, 0.00, 0.00, 0.00
50, -5925.18, 46031.32, -8915.62, -23785.12, -994.88, -28987.24, -11261.90, -25349.98, 0.00, 0.00, 0.00
51, -5908.28, 45893.23, -8917.25, -23763.73, -1015.24, -28985.27, -11255.24, -25321.20, 0.00, 0.00, 0.00
52, -5895.18, 45819.42, -8886.72, -23732.95, -995.46, -28942.02, -11218.45, -25289.57, 0.00, 0.00, 0.00
53, -5907.92, 45934.53, -8878.36, -23750.67, -973.17, -28946.27, -11221.92, -25317.84, 0.00, 0.00, 0.00
54, -5909.20, 46022.60, -8898.30, -23767.59, -985.44, -28980.24, -11264.03, -25344.73, 0.00, 0.00, 0.00
55, -5904.12, 45912.89, -8920.04, -23762.85, -1012.82, -28997.16, -11270.73, -25338.70, -0.04, 0.93, 0.32
56, -5895.94, 45804.82, -8899.39, -23737.31, -1001.09, -28967.61, -11233.67, -25319.94, 0.00, 0.00, 0.00
57, -5904.57, 45888.40, -8877.04, -23744.32, -971.90, -28959.30, -11234.34, -25338.50, 0.00, 0.00, 0.00
58, -5910.61, 45997.65, -8885.65, -23760.60, -965.51, -28982.72, -11258.82, -25357.05, 0.00, 0.00, 0.00
59, -5895.94, 45915.58, -8896.26, -23747.63, -984.30, -28989.29, -11267.83, -25344.29, 0.00, 0.00, 0.00
60, -5899.77, 45787.05, -8894.25, -23737.37, -987.12, -28977.76, -11253.99, -25332.37, 0.00, 0.00, 0.00
61, -5909.22, 45844.66, -8882.27, -23744.23, -961.59, -28966.74, -11246.64, -25343.55, 0.00, 0.00, 0.00
62, -5919.95, 45966.16, -8895.93, -23765.42, -954.46, -28982.59, -11266.11, -25366.08, 0.00, 0.00, 0.00
63, -5913.91, 45915.76, -8916.80, -23761.20, -971.76, -29000.02, -11274.93, -25356.53, 0.00, 0.00, 0.00
64, -5891.29, 45769.80, -8894.99, -23723.29, -969.48, -28968.89, -11240.07, -25317.19, 0.00, 0.00, 0.00
65, -5905.15, 45798.39, -8876.41, -23722.67, -947.29, -28947.65, -11219.61, -25316.43, -0.04, 0.93, 0.32
66, -5926.32, 45926.39, -8889.00, -23746.18, -940.05, -28963.93, -11234.23, -25338.85, 0.00, 0.00, 0.00
67, -5931.50, 45914.19, -8919.04, -23764.60, -958.49, -28995.29, -11244.22, -25343.41, 0.00, 0.00, 0.00
68, -5918.97, 45750.18, -8920.11, -23745.93, -968.93, -28982.39, -11221.67, -25311.52, 0.00, 0.00, 0.00
69, -5921.51, 45740.34, -8894.41, -23735.12, -954.33, -28945.33, -11198.60, -25298.04, 0.00, 0.00, 0.00
70, -5946.15, 45878.27, -8905.18, -23768.80, -951.65, -28959.95, -11223.95, -25329.38, 0.00, 0.00, 0.00
71, -5938.57, 45907.82, -8920.58, -23771.39, -963.09, -28977.56, -11235.15, -25325.35, 0.00, 0.00, 0.00
72, -5918.67, 45767.74, -8919.78, -23748.10, -977.51, -28963.01, -11221.74, -25292.16, 0.00, 0.00, 0.00
73, -5918.29, 45733.95, -8903.66, -23743.05, -964.68, -28939.12, -11205.09, -25283.82, 0.00, 0.00, 0.00
74, -5934.81, 45862.11, -8896.73, -23759.39, -942.71, -28936.05, -11204.68, -25301.44, 0.00, 0.00, 0.00
75, -5935.42, 45924.12, -8910.72, -23764.73, -954.11, -28958.00, -11215.90, -25306.17, -0.05, 0.92, 0.32
76, -5925.13, 45799.04, -8916.74, -23745.29, -978.16, -28958.45, -11214.29, -25285.81, 0.00, 0.00, 0.00
77, -5930.83, 45723.71, -8911.73, -23743.74, -981.78, -28948.01, -11207.21, -25287.67, 0.00, 0.00, 0.00
78, -5932.18, 45822.82, -8903.39, -23753.62, -960.43, -28943.38, -11212.91, -25302.40, 0.00, 0.00, 0.00
79, -5924.49, 45910.23, -8906.50, -23757.13, -958.69, -28960.01, -11221.51, -25307.25, 0.00, 0.00, 0.00
80, -5911.61, 45806.59, -8910.12, -23739.25, -978.36, -28970.63, -11219.77, -25289.97, 0.00, 0.00, 0.00
81, -5909.29, 45698.65, -8898.77, -23724.86, -982.14, -28955.88, -11208.37, -25278.82, 0.00, 0.00, 0.00
82, -5915.25, 45782.20, -8884.46, -23737.04, -964.59, -28948.28, -11205.53, -25299.89, 0.00, 0.00, 0.00
83, -5915.97, 45895.08, -8893.09, -23751.90, -964.19, -28967.28, -11229.87, -25321.82, 0.00, 0.00, 0.00
84, -5913.85, 45825.95, -8914.93, -23747.25, -989.22, -28984.96, -11250.55, -25320.86, 0.00, 0.00, 0.00
85, -5912.82, 45685.85, -8901.20, -23727.05, -992.31, -28969.78, -11224.58, -25299.36, -0.04, 0.92, 0.32
86, -5916.91, 45732.96, -8871.83, -23721.73, -957.79, -28941.08, -11202.63, -25296.65, 0.00, 0.00, 0.00
87, -5919.81, 45859.48, -8883.34, -23742.09, -950.53, -28958.83, -11214.18, -25316.90, 0.00, 0.00, 0.00
88, -5908.12, 45824.29, -8906.32, -23743.83, -976.48, -28985.00, -11222.63, -25312.05, 0.00, 0.00, 0.00
89, -5906.52, 45674.22, -8906.70, -23727.29, -992.71, -28968.84, -11213.24, -25294.26, 0.00, 0.00, 0.00
90, -5916.17, 45686.83, -8886.05, -23724.14, -975.92, -28941.78, -11196.19, -25295.29, 0.00, 0.00, 0.00
91, -5936.18, 45811.71, -8889.67, -23748.66, -965.44, -28948.71, -11214.07, -25321.96, 0.00, 0.00, 0.00
92, -5934.48, 45809.74, -8911.35, -23756.86, -981.51, -28970.34, -11232.62, -25321.75, 0.00, 0.00, 0.00
93, -5919.61, 45653.32, -8915.04, -23738.31, -996.89, -28964.80, -11214.96, -25294.84, 0.00, 0.00, 0.00
94, -5934.01, 45631.18, -8904.29, -23740.88, -977.24, -28946.02, -11197.02, -25297.05, 0.00, 0.00, 0.00
95, -5947.31, 45752.99, -8904.24, -23760.84, -958.69, -28950.07, -11214.05, -25318.76, -0.04, 0.93, 0.32
96, -5941.50, 45785.54, -8921.81, -23768.96, -970.02, -28965.65, -11227.71, -25318.04, 0.00, 0.00, 0.00
97, -5925.94, 45647.18, -8930.06, -23748.55, -992.37, -28963.28, -11211.99, -25292.41, 0.00, 0.00, 0.00
98, -5928.00, 45586.98, -8909.23, -23729.88, -980.26, -28932.68, -11182.29, -25276.36, 0.00, 0.00, 0.00
99, -5942.70, 45704.00, -8898.01, -23742.13, -957.08, -28931.90, -11186.80, -25296.47, 0.00, 0.00, 0.00
100, -5938.34, 45770.02, -8912.47, -23753.76, -963.63, -28956.71, -11211.79, -25308.01, 0.00, 0.00, 0.00
101, -5917.33, 45646.30, -8923.26, -23740.66, -987.25, -28963.28, -11214.74, -25289.12, 0.00, 0.00, 0.00
102, -5913.87, 45562.87, -8909.32, -23733.01, -988.57, -28949.08, -11201.96, -25281.48, 0.00, 0.00, 0.00
103, -5916.33, 45653.91, -8882.38, -23729.93, -952.16, -28931.34, -11186.47, -25280.25, 0.00, 0.00, 0.00
104, -5925.72, 45751.32, -8892.62, -23746.31, -954.13, -28952.62, -11211.52, -25297.21, 0.00, 0.00, 0.00
105, -5913.29, 45655.87, -8910.77, -23737.57, -985.49, -28968.57, -11223.57, -25285.46, -0.04, 0.93, 0.32
106, -5904.39, 45537.21, -8899.64, -23719.63, -985.47, -28946.16, -11198.80, -25267.86, 0.00, 0.00, 0.00
107, -5917.53, 45611.04, -8885.89, -23726.20, -956.25, -28932.01, -11192.21, -25282.33, 0.00, 0.00, 0.00
108, -5929.90, 45727.38, -8895.32, -23741.62, -948.54, -28952.50, -11213.36, -25304.50, 0.00, 0.00, 0.00
109, -5918.99, 45660.79, -8908.44, -23734.49, -966.06, -28973.69, -11217.02, -25294.11, 0.00, 0.00, 0.00
110, -5905.11, 45527.55, -8895.12, -23711.56, -964.66, -28954.00, -11199.83, -25272.13, 0.00, 0.00, 0.00
111, -5926.14, 45570.64, -8888.22, -23724.77, -952.88, -28948.46, -11204.68, -25294.26, 0.00, 0.00, 0.00
